 z[m] p[mb] tp[K] q[g/kg] u[m/s] v[m/s]
 0.E+0,  47,  991.299988
    0.0000  991.3000  297.5924   18.5469    0.0000   -0.4000
  334.0000  954.2000  300.4496   16.5131    0.8100   -3.5100
  443.0000  942.0000  300.8142   16.4649    1.1700   -3.8800
  970.0000  886.9000  303.2788   14.6163    3.4400   -4.7700
 1523.0000  831.5000  305.7706   12.7721    3.5300   -5.2800
 2086.0000  778.9000  308.5074   10.9566    3.8800   -5.8500
 2630.0000  729.8000  311.0645    9.1329    4.0900   -5.6000
 3166.9998  684.0000  313.7156    8.5617    3.9700   -2.6700
 3693.9998  641.7000  316.1895    7.4557    1.2200   -1.4700
 4197.0000  603.2000  318.2611    6.7084    0.1600    0.5700
 4657.0000  570.1000  319.9731    6.0460   -1.2200    0.8900
 5112.0000  538.6000  322.3978    5.2372   -1.7200   -0.0800
 5556.0000  509.1000  324.8900    4.3251   -2.7700    1.1100
 6001.0000  480.4000  327.6849    3.5266   -2.6500    2.1500
 6448.0000  454.0000  329.3629    3.0717   -0.6400    3.1200
 6865.9995  429.6000  331.6133    2.2173   -0.0700    3.2200
 7301.0000  405.7000  333.1885    1.9990   -1.9000    3.3400
 7751.0000  382.5000  334.2248    1.5877   -2.7000    1.9100
 8170.0000  361.1000  336.2921    0.9643   -2.9900    1.1500
 8588.0000  340.9000  337.9000    0.8247   -3.6600    1.0100
 9019.0000  321.2000  339.5067    0.6192   -5.0500   -0.5700
 9481.0000  301.2000  341.3365    0.4209   -6.6400   -0.6700
 9954.0000  281.8000  342.5950    0.2915   -4.7400    0.3100
10443.0000  263.1000  343.5854    0.2230   -5.3000    2.9700
10878.0000  246.1000  344.6550    0.2056   -6.0700    2.3200
11330.0000  230.1000  345.6043    0.1231   -4.2600    2.6600
11835.9990  213.2000  347.0636    0.0781   -7.5200    4.7900
12342.0000  197.0000  347.6107    0.0500   -8.8800    3.4000
12841.0000  182.3000  348.0988    0.0326   -9.0000    3.1400
13348.0000  167.9000  348.9892    0.0175   -7.7700    3.9300
13841.0000  154.9000  350.1689    0.0092   -5.3700    7.5700
14313.0000  143.0000  352.8745    0.0055   -3.8800    2.5800
14826.0000  131.1000  355.2420    0.0030   -1.1500    2.5000
15328.0000  119.7000  358.9141    0.0017   -2.3600    6.4400
15888.9990  108.9000  362.8484    0.0011   -9.2000    6.8400
16361.0000  100.1000  371.5976    0.0011   -8.0100    0.1900
16831.0020   92.1000  381.9160    0.0012   -5.6800   -2.2000
17312.0000   84.6000  388.5070    0.0011   -8.8300   -3.6000
17804.0000   77.5000  398.8011    0.0011  -14.5100    0.5600
18267.0000   71.4000  414.3179    0.0016  -15.5500    6.6800
18721.0000   65.9000  431.6455    0.0028  -15.3600    9.4100
19201.0000   60.7000  442.4644    0.0025  -17.6700    7.0300
19679.0000   55.9000  457.3408    0.0029  -17.8200    5.3200
20191.0000   51.3000  472.7966    0.0031  -18.9400    1.1400
20683.0000   47.2000  488.2108    0.0032  -15.9200   -0.6500
21199.0020   43.3000  506.0144    0.0033  -15.3200    5.2700
29870.0000   10.3000  762.8471    0.0138  -15.3200    5.2700
 1.,  47,  991.299988
    0.0000  991.3000  297.5924   18.5469    0.0000   -0.4000
  334.0000  954.2000  300.4496   16.5131    0.8100   -3.5100
  443.0000  942.0000  300.8142   16.4649    1.1700   -3.8800
  970.0000  886.9000  303.2788   14.6163    3.4400   -4.7700
 1523.0000  831.5000  305.7706   12.7721    3.5300   -5.2800
 2086.0000  778.9000  308.5074   10.9566    3.8800   -5.8500
 2630.0000  729.8000  311.0645    9.1329    4.0900   -5.6000
 3166.9998  684.0000  313.7156    8.5617    3.9700   -2.6700
 3693.9998  641.7000  316.1895    7.4557    1.2200   -1.4700
 4197.0000  603.2000  318.2611    6.7084    0.1600    0.5700
 4657.0000  570.1000  319.9731    6.0460   -1.2200    0.8900
 5112.0000  538.6000  322.3978    5.2372   -1.7200   -0.0800
 5556.0000  509.1000  324.8900    4.3251   -2.7700    1.1100
 6001.0000  480.4000  327.6849    3.5266   -2.6500    2.1500
 6448.0000  454.0000  329.3629    3.0717   -0.6400    3.1200
 6865.9995  429.6000  331.6133    2.2173   -0.0700    3.2200
 7301.0000  405.7000  333.1885    1.9990   -1.9000    3.3400
 7751.0000  382.5000  334.2248    1.5877   -2.7000    1.9100
 8170.0000  361.1000  336.2921    0.9643   -2.9900    1.1500
 8588.0000  340.9000  337.9000    0.8247   -3.6600    1.0100
 9019.0000  321.2000  339.5067    0.6192   -5.0500   -0.5700
 9481.0000  301.2000  341.3365    0.4209   -6.6400   -0.6700
 9954.0000  281.8000  342.5950    0.2915   -4.7400    0.3100
10443.0000  263.1000  343.5854    0.2230   -5.3000    2.9700
10878.0000  246.1000  344.6550    0.2056   -6.0700    2.3200
11330.0000  230.1000  345.6043    0.1231   -4.2600    2.6600
11835.9990  213.2000  347.0636    0.0781   -7.5200    4.7900
12342.0000  197.0000  347.6107    0.0500   -8.8800    3.4000
12841.0000  182.3000  348.0988    0.0326   -9.0000    3.1400
13348.0000  167.9000  348.9892    0.0175   -7.7700    3.9300
13841.0000  154.9000  350.1689    0.0092   -5.3700    7.5700
14313.0000  143.0000  352.8745    0.0055   -3.8800    2.5800
14826.0000  131.1000  355.2420    0.0030   -1.1500    2.5000
15328.0000  119.7000  358.9141    0.0017   -2.3600    6.4400
15888.9990  108.9000  362.8484    0.0011   -9.2000    6.8400
16361.0000  100.1000  371.5976    0.0011   -8.0100    0.1900
16831.0020   92.1000  381.9160    0.0012   -5.6800   -2.2000
17312.0000   84.6000  388.5070    0.0011   -8.8300   -3.6000
17804.0000   77.5000  398.8011    0.0011  -14.5100    0.5600
18267.0000   71.4000  414.3179    0.0016  -15.5500    6.6800
18721.0000   65.9000  431.6455    0.0028  -15.3600    9.4100
19201.0000   60.7000  442.4644    0.0025  -17.6700    7.0300
19679.0000   55.9000  457.3408    0.0029  -17.8200    5.3200
20191.0000   51.3000  472.7966    0.0031  -18.9400    1.1400
20683.0000   47.2000  488.2108    0.0032  -15.9200   -0.6500
21199.0020   43.3000  506.0144    0.0033  -15.3200    5.2700
29870.0000   10.3000  762.8471    0.0138  -15.3200    5.2700
