 z[m] p[mb] tp[K] q[g/kg] u[m/s] v[m/s]
   243.0000     ,  33,  1012.  day,levels,pres0
         46.6     1006.68     297.876      16.500       -1.00        0.00
        160.3      993.76     297.905      16.500       -1.00        0.00
        301.7      977.87     297.911      16.500       -1.40        0.00
        470.7      959.12     297.911      16.500       -1.70        0.00
        667.2      937.67     299.235      15.004       -1.80        0.00
        891.4      913.70     300.136      14.054       -2.10        0.00
       1143.1      887.38     301.200      13.020       -2.60        0.00
       1422.4      858.91     302.536      11.982       -3.60        0.00
       1729.3      828.51     304.035      10.891       -4.90        0.00
       2063.8      796.40     305.737       9.860       -6.70        0.00
       2425.9      762.83     307.545       8.829       -8.70        0.00
       2815.5      728.03     309.369       7.929      -10.60        0.00
       3232.8      692.23     311.280       7.036      -12.20        0.00
       3677.6      655.67     313.213       6.212      -13.20        0.00
       4150.0      618.59     315.411       5.392      -13.10        0.00
       4650.0      581.27     317.924       4.593      -12.00        0.00
       5177.6      543.94     320.610       3.763       -9.70        0.00
       5732.8      506.84     323.480       2.899       -6.60        0.00
       6315.5      470.17     326.258       2.175       -3.20        0.00
       6925.9      434.13     329.099       1.497       -0.30        0.00
       7563.8      398.88     331.582       1.120        1.30        0.00
       8229.3      364.59     334.065       0.787        1.30        0.00
       8922.4      331.38     336.200       0.544        0.40        0.00
       9643.1      299.38     338.102       0.347       -1.00        0.00
      10391.4      268.72     339.802       0.190       -2.90        0.00
      11167.2      239.49     341.230       0.114       -4.30        0.00
      11970.7      211.81     342.889       0.060       -4.50        0.00
      12801.7      185.81     345.010       0.027       -2.80        0.00
      13660.3      161.60     348.292       0.011       -0.60        0.00
      14546.6      139.36     354.478       0.010       -0.50        0.00
      15460.3      119.24     364.703       0.010       -2.20        0.00
      16401.7      101.39     380.539       0.010       -2.50        0.00
      17370.7       85.80     400.375       0.010       -3.00        0.00
   243.0417     ,  33,  1012.  day,levels,pres0
         46.6     1006.68     297.876      16.500       -1.00        0.00
        160.3      993.76     297.905      16.500       -1.00        0.00
        301.7      977.87     297.911      16.500       -1.40        0.00
        470.7      959.12     297.911      16.500       -1.70        0.00
        667.2      937.67     299.235      15.004       -1.80        0.00
        891.4      913.70     300.136      14.054       -2.10        0.00
       1143.1      887.38     301.200      13.020       -2.60        0.00
       1422.4      858.91     302.536      11.982       -3.60        0.00
       1729.3      828.51     304.035      10.891       -4.90        0.00
       2063.8      796.40     305.737       9.860       -6.70        0.00
       2425.9      762.83     307.545       8.829       -8.70        0.00
       2815.5      728.03     309.369       7.929      -10.60        0.00
       3232.8      692.23     311.280       7.036      -12.20        0.00
       3677.6      655.67     313.213       6.212      -13.20        0.00
       4150.0      618.59     315.411       5.392      -13.10        0.00
       4650.0      581.27     317.924       4.593      -12.00        0.00
       5177.6      543.94     320.610       3.763       -9.70        0.00
       5732.8      506.84     323.480       2.899       -6.60        0.00
       6315.5      470.17     326.258       2.175       -3.20        0.00
       6925.9      434.13     329.099       1.497       -0.30        0.00
       7563.8      398.88     331.582       1.120        1.30        0.00
       8229.3      364.59     334.065       0.787        1.30        0.00
       8922.4      331.38     336.200       0.544        0.40        0.00
       9643.1      299.38     338.102       0.347       -1.00        0.00
      10391.4      268.72     339.802       0.190       -2.90        0.00
      11167.2      239.49     341.230       0.114       -4.30        0.00
      11970.7      211.81     342.889       0.060       -4.50        0.00
      12801.7      185.81     345.010       0.027       -2.80        0.00
      13660.3      161.60     348.292       0.011       -0.60        0.00
      14546.6      139.36     354.478       0.010       -0.50        0.00
      15460.3      119.24     364.703       0.010       -2.20        0.00
      16401.7      101.39     380.539       0.010       -2.50        0.00
      17370.7       85.80     400.375       0.010       -3.00        0.00
   243.0833     ,  33,  1012.  day,levels,pres0
         46.6     1006.68     297.876      16.500       -1.00        0.00
        160.3      993.76     297.905      16.500       -1.00        0.00
        301.7      977.87     297.911      16.500       -1.40        0.00
        470.7      959.12     297.911      16.500       -1.70        0.00
        667.2      937.67     299.235      15.004       -1.80        0.00
        891.4      913.70     300.136      14.054       -2.10        0.00
       1143.1      887.38     301.200      13.020       -2.60        0.00
       1422.4      858.91     302.536      11.982       -3.60        0.00
       1729.3      828.51     304.035      10.891       -4.90        0.00
       2063.8      796.40     305.737       9.860       -6.70        0.00
       2425.9      762.83     307.545       8.829       -8.70        0.00
       2815.5      728.03     309.369       7.929      -10.60        0.00
       3232.8      692.23     311.280       7.036      -12.20        0.00
       3677.6      655.67     313.213       6.212      -13.20        0.00
       4150.0      618.59     315.411       5.392      -13.10        0.00
       4650.0      581.27     317.924       4.593      -12.00        0.00
       5177.6      543.94     320.610       3.763       -9.70        0.00
       5732.8      506.84     323.480       2.899       -6.60        0.00
       6315.5      470.17     326.258       2.175       -3.20        0.00
       6925.9      434.13     329.099       1.497       -0.30        0.00
       7563.8      398.88     331.582       1.120        1.30        0.00
       8229.3      364.59     334.065       0.787        1.30        0.00
       8922.4      331.38     336.200       0.544        0.40        0.00
       9643.1      299.38     338.102       0.347       -1.00        0.00
      10391.4      268.72     339.802       0.190       -2.90        0.00
      11167.2      239.49     341.230       0.114       -4.30        0.00
      11970.7      211.81     342.889       0.060       -4.50        0.00
      12801.7      185.81     345.010       0.027       -2.80        0.00
      13660.3      161.60     348.292       0.011       -0.60        0.00
      14546.6      139.36     354.478       0.010       -0.50        0.00
      15460.3      119.24     364.703       0.010       -2.20        0.00
      16401.7      101.39     380.539       0.010       -2.50        0.00
      17370.7       85.80     400.375       0.010       -3.00        0.00
   243.1250     ,  33,  1012.  day,levels,pres0
         46.6     1006.68     297.876      16.500       -1.00        0.00
        160.3      993.76     297.905      16.500       -1.00        0.00
        301.7      977.87     297.911      16.500       -1.40        0.00
        470.7      959.12     297.911      16.500       -1.70        0.00
        667.2      937.67     299.235      15.004       -1.80        0.00
        891.4      913.70     300.136      14.054       -2.10        0.00
       1143.1      887.38     301.200      13.020       -2.60        0.00
       1422.4      858.91     302.536      11.982       -3.60        0.00
       1729.3      828.51     304.035      10.891       -4.90        0.00
       2063.8      796.40     305.737       9.860       -6.70        0.00
       2425.9      762.83     307.545       8.829       -8.70        0.00
       2815.5      728.03     309.369       7.929      -10.60        0.00
       3232.8      692.23     311.280       7.036      -12.20        0.00
       3677.6      655.67     313.213       6.212      -13.20        0.00
       4150.0      618.59     315.411       5.392      -13.10        0.00
       4650.0      581.27     317.924       4.593      -12.00        0.00
       5177.6      543.94     320.610       3.763       -9.70        0.00
       5732.8      506.84     323.480       2.899       -6.60        0.00
       6315.5      470.17     326.258       2.175       -3.20        0.00
       6925.9      434.13     329.099       1.497       -0.30        0.00
       7563.8      398.88     331.582       1.120        1.30        0.00
       8229.3      364.59     334.065       0.787        1.30        0.00
       8922.4      331.38     336.200       0.544        0.40        0.00
       9643.1      299.38     338.102       0.347       -1.00        0.00
      10391.4      268.72     339.802       0.190       -2.90        0.00
      11167.2      239.49     341.230       0.114       -4.30        0.00
      11970.7      211.81     342.889       0.060       -4.50        0.00
      12801.7      185.81     345.010       0.027       -2.80        0.00
      13660.3      161.60     348.292       0.011       -0.60        0.00
      14546.6      139.36     354.478       0.010       -0.50        0.00
      15460.3      119.24     364.703       0.010       -2.20        0.00
      16401.7      101.39     380.539       0.010       -2.50        0.00
      17370.7       85.80     400.375       0.010       -3.00        0.00
   243.1667     ,  33,  1012.  day,levels,pres0
         46.6     1006.68     297.876      16.500       -1.00        0.00
        160.3      993.76     297.905      16.500       -1.00        0.00
        301.7      977.87     297.911      16.500       -1.40        0.00
        470.7      959.12     297.911      16.500       -1.70        0.00
        667.2      937.67     299.235      15.004       -1.80        0.00
        891.4      913.70     300.136      14.054       -2.10        0.00
       1143.1      887.38     301.200      13.020       -2.60        0.00
       1422.4      858.91     302.536      11.982       -3.60        0.00
       1729.3      828.51     304.035      10.891       -4.90        0.00
       2063.8      796.40     305.737       9.860       -6.70        0.00
       2425.9      762.83     307.545       8.829       -8.70        0.00
       2815.5      728.03     309.369       7.929      -10.60        0.00
       3232.8      692.23     311.280       7.036      -12.20        0.00
       3677.6      655.67     313.213       6.212      -13.20        0.00
       4150.0      618.59     315.411       5.392      -13.10        0.00
       4650.0      581.27     317.924       4.593      -12.00        0.00
       5177.6      543.94     320.610       3.763       -9.70        0.00
       5732.8      506.84     323.480       2.899       -6.60        0.00
       6315.5      470.17     326.258       2.175       -3.20        0.00
       6925.9      434.13     329.099       1.497       -0.30        0.00
       7563.8      398.88     331.582       1.120        1.30        0.00
       8229.3      364.59     334.065       0.787        1.30        0.00
       8922.4      331.38     336.200       0.544        0.40        0.00
       9643.1      299.38     338.102       0.347       -1.00        0.00
      10391.4      268.72     339.802       0.190       -2.90        0.00
      11167.2      239.49     341.230       0.114       -4.30        0.00
      11970.7      211.81     342.889       0.060       -4.50        0.00
      12801.7      185.81     345.010       0.027       -2.80        0.00
      13660.3      161.60     348.292       0.011       -0.60        0.00
      14546.6      139.36     354.478       0.010       -0.50        0.00
      15460.3      119.24     364.703       0.010       -2.20        0.00
      16401.7      101.39     380.539       0.010       -2.50        0.00
      17370.7       85.80     400.375       0.010       -3.00        0.00
   243.2084     ,  33,  1012.  day,levels,pres0
         46.6     1006.68     297.876      16.500       -1.00        0.00
        160.3      993.76     297.905      16.500       -1.00        0.00
        301.7      977.87     297.911      16.500       -1.40        0.00
        470.7      959.12     297.911      16.500       -1.70        0.00
        667.2      937.67     299.235      15.004       -1.80        0.00
        891.4      913.70     300.136      14.054       -2.10        0.00
       1143.1      887.38     301.200      13.020       -2.60        0.00
       1422.4      858.91     302.536      11.982       -3.60        0.00
       1729.3      828.51     304.035      10.891       -4.90        0.00
       2063.8      796.40     305.737       9.860       -6.70        0.00
       2425.9      762.83     307.545       8.829       -8.70        0.00
       2815.5      728.03     309.369       7.929      -10.60        0.00
       3232.8      692.23     311.280       7.036      -12.20        0.00
       3677.6      655.67     313.213       6.212      -13.20        0.00
       4150.0      618.59     315.411       5.392      -13.10        0.00
       4650.0      581.27     317.924       4.593      -12.00        0.00
       5177.6      543.94     320.610       3.763       -9.70        0.00
       5732.8      506.84     323.480       2.899       -6.60        0.00
       6315.5      470.17     326.258       2.175       -3.20        0.00
       6925.9      434.13     329.099       1.497       -0.30        0.00
       7563.8      398.88     331.582       1.120        1.30        0.00
       8229.3      364.59     334.065       0.787        1.30        0.00
       8922.4      331.38     336.200       0.544        0.40        0.00
       9643.1      299.38     338.102       0.347       -1.00        0.00
      10391.4      268.72     339.802       0.190       -2.90        0.00
      11167.2      239.49     341.230       0.114       -4.30        0.00
      11970.7      211.81     342.889       0.060       -4.50        0.00
      12801.7      185.81     345.010       0.027       -2.80        0.00
      13660.3      161.60     348.292       0.011       -0.60        0.00
      14546.6      139.36     354.478       0.010       -0.50        0.00
      15460.3      119.24     364.703       0.010       -2.20        0.00
      16401.7      101.39     380.539       0.010       -2.50        0.00
      17370.7       85.80     400.375       0.010       -3.00        0.00
   243.2500     ,  33,  1012.  day,levels,pres0
         46.6     1006.68     297.876      16.500       -1.00        0.00
        160.3      993.76     297.905      16.500       -1.00        0.00
        301.7      977.87     297.911      16.500       -1.40        0.00
        470.7      959.12     297.911      16.500       -1.70        0.00
        667.2      937.67     299.235      15.004       -1.80        0.00
        891.4      913.70     300.136      14.054       -2.10        0.00
       1143.1      887.38     301.200      13.020       -2.60        0.00
       1422.4      858.91     302.536      11.982       -3.60        0.00
       1729.3      828.51     304.035      10.891       -4.90        0.00
       2063.8      796.40     305.737       9.860       -6.70        0.00
       2425.9      762.83     307.545       8.829       -8.70        0.00
       2815.5      728.03     309.369       7.929      -10.60        0.00
       3232.8      692.23     311.280       7.036      -12.20        0.00
       3677.6      655.67     313.213       6.212      -13.20        0.00
       4150.0      618.59     315.411       5.392      -13.10        0.00
       4650.0      581.27     317.924       4.593      -12.00        0.00
       5177.6      543.94     320.610       3.763       -9.70        0.00
       5732.8      506.84     323.480       2.899       -6.60        0.00
       6315.5      470.17     326.258       2.175       -3.20        0.00
       6925.9      434.13     329.099       1.497       -0.30        0.00
       7563.8      398.88     331.582       1.120        1.30        0.00
       8229.3      364.59     334.065       0.787        1.30        0.00
       8922.4      331.38     336.200       0.544        0.40        0.00
       9643.1      299.38     338.102       0.347       -1.00        0.00
      10391.4      268.72     339.802       0.190       -2.90        0.00
      11167.2      239.49     341.230       0.114       -4.30        0.00
      11970.7      211.81     342.889       0.060       -4.50        0.00
      12801.7      185.81     345.010       0.027       -2.80        0.00
      13660.3      161.60     348.292       0.011       -0.60        0.00
      14546.6      139.36     354.478       0.010       -0.50        0.00
      15460.3      119.24     364.703       0.010       -2.20        0.00
      16401.7      101.39     380.539       0.010       -2.50        0.00
      17370.7       85.80     400.375       0.010       -3.00        0.00
   243.2917     ,  33,  1012.  day,levels,pres0
         46.6     1006.68     297.876      16.500       -1.00        0.00
        160.3      993.76     297.905      16.500       -1.00        0.00
        301.7      977.87     297.911      16.500       -1.40        0.00
        470.7      959.12     297.911      16.500       -1.70        0.00
        667.2      937.67     299.235      15.004       -1.80        0.00
        891.4      913.70     300.136      14.054       -2.10        0.00
       1143.1      887.38     301.200      13.020       -2.60        0.00
       1422.4      858.91     302.536      11.982       -3.60        0.00
       1729.3      828.51     304.035      10.891       -4.90        0.00
       2063.8      796.40     305.737       9.860       -6.70        0.00
       2425.9      762.83     307.545       8.829       -8.70        0.00
       2815.5      728.03     309.369       7.929      -10.60        0.00
       3232.8      692.23     311.280       7.036      -12.20        0.00
       3677.6      655.67     313.213       6.212      -13.20        0.00
       4150.0      618.59     315.411       5.392      -13.10        0.00
       4650.0      581.27     317.924       4.593      -12.00        0.00
       5177.6      543.94     320.610       3.763       -9.70        0.00
       5732.8      506.84     323.480       2.899       -6.60        0.00
       6315.5      470.17     326.258       2.175       -3.20        0.00
       6925.9      434.13     329.099       1.497       -0.30        0.00
       7563.8      398.88     331.582       1.120        1.30        0.00
       8229.3      364.59     334.065       0.787        1.30        0.00
       8922.4      331.38     336.200       0.544        0.40        0.00
       9643.1      299.38     338.102       0.347       -1.00        0.00
      10391.4      268.72     339.802       0.190       -2.90        0.00
      11167.2      239.49     341.230       0.114       -4.30        0.00
      11970.7      211.81     342.889       0.060       -4.50        0.00
      12801.7      185.81     345.010       0.027       -2.80        0.00
      13660.3      161.60     348.292       0.011       -0.60        0.00
      14546.6      139.36     354.478       0.010       -0.50        0.00
      15460.3      119.24     364.703       0.010       -2.20        0.00
      16401.7      101.39     380.539       0.010       -2.50        0.00
      17370.7       85.80     400.375       0.010       -3.00        0.00
   243.3334     ,  33,  1012.  day,levels,pres0
         46.6     1006.68     297.876      16.500       -1.00        0.00
        160.3      993.76     297.905      16.500       -1.00        0.00
        301.7      977.87     297.911      16.500       -1.40        0.00
        470.7      959.12     297.911      16.500       -1.70        0.00
        667.2      937.67     299.235      15.004       -1.80        0.00
        891.4      913.70     300.136      14.054       -2.10        0.00
       1143.1      887.38     301.200      13.020       -2.60        0.00
       1422.4      858.91     302.536      11.982       -3.60        0.00
       1729.3      828.51     304.035      10.891       -4.90        0.00
       2063.8      796.40     305.737       9.860       -6.70        0.00
       2425.9      762.83     307.545       8.829       -8.70        0.00
       2815.5      728.03     309.369       7.929      -10.60        0.00
       3232.8      692.23     311.280       7.036      -12.20        0.00
       3677.6      655.67     313.213       6.212      -13.20        0.00
       4150.0      618.59     315.411       5.392      -13.10        0.00
       4650.0      581.27     317.924       4.593      -12.00        0.00
       5177.6      543.94     320.610       3.763       -9.70        0.00
       5732.8      506.84     323.480       2.899       -6.60        0.00
       6315.5      470.17     326.258       2.175       -3.20        0.00
       6925.9      434.13     329.099       1.497       -0.30        0.00
       7563.8      398.88     331.582       1.120        1.30        0.00
       8229.3      364.59     334.065       0.787        1.30        0.00
       8922.4      331.38     336.200       0.544        0.40        0.00
       9643.1      299.38     338.102       0.347       -1.00        0.00
      10391.4      268.72     339.802       0.190       -2.90        0.00
      11167.2      239.49     341.230       0.114       -4.30        0.00
      11970.7      211.81     342.889       0.060       -4.50        0.00
      12801.7      185.81     345.010       0.027       -2.80        0.00
      13660.3      161.60     348.292       0.011       -0.60        0.00
      14546.6      139.36     354.478       0.010       -0.50        0.00
      15460.3      119.24     364.703       0.010       -2.20        0.00
      16401.7      101.39     380.539       0.010       -2.50        0.00
      17370.7       85.80     400.375       0.010       -3.00        0.00
   243.3750     ,  33,  1012.  day,levels,pres0
         46.6     1006.68     297.876      16.500       -1.00        0.00
        160.3      993.76     297.905      16.500       -1.00        0.00
        301.7      977.87     297.911      16.500       -1.40        0.00
        470.7      959.12     297.911      16.500       -1.70        0.00
        667.2      937.67     299.235      15.004       -1.80        0.00
        891.4      913.70     300.136      14.054       -2.10        0.00
       1143.1      887.38     301.200      13.020       -2.60        0.00
       1422.4      858.91     302.536      11.982       -3.60        0.00
       1729.3      828.51     304.035      10.891       -4.90        0.00
       2063.8      796.40     305.737       9.860       -6.70        0.00
       2425.9      762.83     307.545       8.829       -8.70        0.00
       2815.5      728.03     309.369       7.929      -10.60        0.00
       3232.8      692.23     311.280       7.036      -12.20        0.00
       3677.6      655.67     313.213       6.212      -13.20        0.00
       4150.0      618.59     315.411       5.392      -13.10        0.00
       4650.0      581.27     317.924       4.593      -12.00        0.00
       5177.6      543.94     320.610       3.763       -9.70        0.00
       5732.8      506.84     323.480       2.899       -6.60        0.00
       6315.5      470.17     326.258       2.175       -3.20        0.00
       6925.9      434.13     329.099       1.497       -0.30        0.00
       7563.8      398.88     331.582       1.120        1.30        0.00
       8229.3      364.59     334.065       0.787        1.30        0.00
       8922.4      331.38     336.200       0.544        0.40        0.00
       9643.1      299.38     338.102       0.347       -1.00        0.00
      10391.4      268.72     339.802       0.190       -2.90        0.00
      11167.2      239.49     341.230       0.114       -4.30        0.00
      11970.7      211.81     342.889       0.060       -4.50        0.00
      12801.7      185.81     345.010       0.027       -2.80        0.00
      13660.3      161.60     348.292       0.011       -0.60        0.00
      14546.6      139.36     354.478       0.010       -0.50        0.00
      15460.3      119.24     364.703       0.010       -2.20        0.00
      16401.7      101.39     380.539       0.010       -2.50        0.00
      17370.7       85.80     400.375       0.010       -3.00        0.00
   243.4167     ,  33,  1012.  day,levels,pres0
         46.6     1006.68     297.876      16.500       -1.00        0.00
        160.3      993.76     297.905      16.500       -1.00        0.00
        301.7      977.87     297.911      16.500       -1.40        0.00
        470.7      959.12     297.911      16.500       -1.70        0.00
        667.2      937.67     299.235      15.004       -1.80        0.00
        891.4      913.70     300.136      14.054       -2.10        0.00
       1143.1      887.38     301.200      13.020       -2.60        0.00
       1422.4      858.91     302.536      11.982       -3.60        0.00
       1729.3      828.51     304.035      10.891       -4.90        0.00
       2063.8      796.40     305.737       9.860       -6.70        0.00
       2425.9      762.83     307.545       8.829       -8.70        0.00
       2815.5      728.03     309.369       7.929      -10.60        0.00
       3232.8      692.23     311.280       7.036      -12.20        0.00
       3677.6      655.67     313.213       6.212      -13.20        0.00
       4150.0      618.59     315.411       5.392      -13.10        0.00
       4650.0      581.27     317.924       4.593      -12.00        0.00
       5177.6      543.94     320.610       3.763       -9.70        0.00
       5732.8      506.84     323.480       2.899       -6.60        0.00
       6315.5      470.17     326.258       2.175       -3.20        0.00
       6925.9      434.13     329.099       1.497       -0.30        0.00
       7563.8      398.88     331.582       1.120        1.30        0.00
       8229.3      364.59     334.065       0.787        1.30        0.00
       8922.4      331.38     336.200       0.544        0.40        0.00
       9643.1      299.38     338.102       0.347       -1.00        0.00
      10391.4      268.72     339.802       0.190       -2.90        0.00
      11167.2      239.49     341.230       0.114       -4.30        0.00
      11970.7      211.81     342.889       0.060       -4.50        0.00
      12801.7      185.81     345.010       0.027       -2.80        0.00
      13660.3      161.60     348.292       0.011       -0.60        0.00
      14546.6      139.36     354.478       0.010       -0.50        0.00
      15460.3      119.24     364.703       0.010       -2.20        0.00
      16401.7      101.39     380.539       0.010       -2.50        0.00
      17370.7       85.80     400.375       0.010       -3.00        0.00
   243.4584     ,  33,  1012.  day,levels,pres0
         46.6     1006.68     297.876      16.500       -1.00        0.00
        160.3      993.76     297.905      16.500       -1.00        0.00
        301.7      977.87     297.911      16.500       -1.40        0.00
        470.7      959.12     297.911      16.500       -1.70        0.00
        667.2      937.67     299.235      15.004       -1.80        0.00
        891.4      913.70     300.136      14.054       -2.10        0.00
       1143.1      887.38     301.200      13.020       -2.60        0.00
       1422.4      858.91     302.536      11.982       -3.60        0.00
       1729.3      828.51     304.035      10.891       -4.90        0.00
       2063.8      796.40     305.737       9.860       -6.70        0.00
       2425.9      762.83     307.545       8.829       -8.70        0.00
       2815.5      728.03     309.369       7.929      -10.60        0.00
       3232.8      692.23     311.280       7.036      -12.20        0.00
       3677.6      655.67     313.213       6.212      -13.20        0.00
       4150.0      618.59     315.411       5.392      -13.10        0.00
       4650.0      581.27     317.924       4.593      -12.00        0.00
       5177.6      543.94     320.610       3.763       -9.70        0.00
       5732.8      506.84     323.480       2.899       -6.60        0.00
       6315.5      470.17     326.258       2.175       -3.20        0.00
       6925.9      434.13     329.099       1.497       -0.30        0.00
       7563.8      398.88     331.582       1.120        1.30        0.00
       8229.3      364.59     334.065       0.787        1.30        0.00
       8922.4      331.38     336.200       0.544        0.40        0.00
       9643.1      299.38     338.102       0.347       -1.00        0.00
      10391.4      268.72     339.802       0.190       -2.90        0.00
      11167.2      239.49     341.230       0.114       -4.30        0.00
      11970.7      211.81     342.889       0.060       -4.50        0.00
      12801.7      185.81     345.010       0.027       -2.80        0.00
      13660.3      161.60     348.292       0.011       -0.60        0.00
      14546.6      139.36     354.478       0.010       -0.50        0.00
      15460.3      119.24     364.703       0.010       -2.20        0.00
      16401.7      101.39     380.539       0.010       -2.50        0.00
      17370.7       85.80     400.375       0.010       -3.00        0.00
   243.5001     ,  33,  1012.  day,levels,pres0
         46.6     1006.68     297.876      16.500       -1.00        0.00
        160.3      993.76     297.905      16.500       -1.00        0.00
        301.7      977.87     297.911      16.500       -1.40        0.00
        470.7      959.12     297.911      16.500       -1.70        0.00
        667.2      937.67     299.235      15.004       -1.80        0.00
        891.4      913.70     300.136      14.054       -2.10        0.00
       1143.1      887.38     301.200      13.020       -2.60        0.00
       1422.4      858.91     302.536      11.982       -3.60        0.00
       1729.3      828.51     304.035      10.891       -4.90        0.00
       2063.8      796.40     305.737       9.860       -6.70        0.00
       2425.9      762.83     307.545       8.829       -8.70        0.00
       2815.5      728.03     309.369       7.929      -10.60        0.00
       3232.8      692.23     311.280       7.036      -12.20        0.00
       3677.6      655.67     313.213       6.212      -13.20        0.00
       4150.0      618.59     315.411       5.392      -13.10        0.00
       4650.0      581.27     317.924       4.593      -12.00        0.00
       5177.6      543.94     320.610       3.763       -9.70        0.00
       5732.8      506.84     323.480       2.899       -6.60        0.00
       6315.5      470.17     326.258       2.175       -3.20        0.00
       6925.9      434.13     329.099       1.497       -0.30        0.00
       7563.8      398.88     331.582       1.120        1.30        0.00
       8229.3      364.59     334.065       0.787        1.30        0.00
       8922.4      331.38     336.200       0.544        0.40        0.00
       9643.1      299.38     338.102       0.347       -1.00        0.00
      10391.4      268.72     339.802       0.190       -2.90        0.00
      11167.2      239.49     341.230       0.114       -4.30        0.00
      11970.7      211.81     342.889       0.060       -4.50        0.00
      12801.7      185.81     345.010       0.027       -2.80        0.00
      13660.3      161.60     348.292       0.011       -0.60        0.00
      14546.6      139.36     354.478       0.010       -0.50        0.00
      15460.3      119.24     364.703       0.010       -2.20        0.00
      16401.7      101.39     380.539       0.010       -2.50        0.00
      17370.7       85.80     400.375       0.010       -3.00        0.00
   243.5417     ,  33,  1012.  day,levels,pres0
         46.6     1006.68     297.876      16.500       -1.00        0.00
        160.3      993.76     297.905      16.500       -1.00        0.00
        301.7      977.87     297.911      16.500       -1.40        0.00
        470.7      959.12     297.911      16.500       -1.70        0.00
        667.2      937.67     299.235      15.004       -1.80        0.00
        891.4      913.70     300.136      14.054       -2.10        0.00
       1143.1      887.38     301.200      13.020       -2.60        0.00
       1422.4      858.91     302.536      11.982       -3.60        0.00
       1729.3      828.51     304.035      10.891       -4.90        0.00
       2063.8      796.40     305.737       9.860       -6.70        0.00
       2425.9      762.83     307.545       8.829       -8.70        0.00
       2815.5      728.03     309.369       7.929      -10.60        0.00
       3232.8      692.23     311.280       7.036      -12.20        0.00
       3677.6      655.67     313.213       6.212      -13.20        0.00
       4150.0      618.59     315.411       5.392      -13.10        0.00
       4650.0      581.27     317.924       4.593      -12.00        0.00
       5177.6      543.94     320.610       3.763       -9.70        0.00
       5732.8      506.84     323.480       2.899       -6.60        0.00
       6315.5      470.17     326.258       2.175       -3.20        0.00
       6925.9      434.13     329.099       1.497       -0.30        0.00
       7563.8      398.88     331.582       1.120        1.30        0.00
       8229.3      364.59     334.065       0.787        1.30        0.00
       8922.4      331.38     336.200       0.544        0.40        0.00
       9643.1      299.38     338.102       0.347       -1.00        0.00
      10391.4      268.72     339.802       0.190       -2.90        0.00
      11167.2      239.49     341.230       0.114       -4.30        0.00
      11970.7      211.81     342.889       0.060       -4.50        0.00
      12801.7      185.81     345.010       0.027       -2.80        0.00
      13660.3      161.60     348.292       0.011       -0.60        0.00
      14546.6      139.36     354.478       0.010       -0.50        0.00
      15460.3      119.24     364.703       0.010       -2.20        0.00
      16401.7      101.39     380.539       0.010       -2.50        0.00
      17370.7       85.80     400.375       0.010       -3.00        0.00
   243.5834     ,  33,  1012.  day,levels,pres0
         46.6     1006.68     297.876      16.500       -1.00        0.00
        160.3      993.76     297.905      16.500       -1.00        0.00
        301.7      977.87     297.911      16.500       -1.40        0.00
        470.7      959.12     297.911      16.500       -1.70        0.00
        667.2      937.67     299.235      15.004       -1.80        0.00
        891.4      913.70     300.136      14.054       -2.10        0.00
       1143.1      887.38     301.200      13.020       -2.60        0.00
       1422.4      858.91     302.536      11.982       -3.60        0.00
       1729.3      828.51     304.035      10.891       -4.90        0.00
       2063.8      796.40     305.737       9.860       -6.70        0.00
       2425.9      762.83     307.545       8.829       -8.70        0.00
       2815.5      728.03     309.369       7.929      -10.60        0.00
       3232.8      692.23     311.280       7.036      -12.20        0.00
       3677.6      655.67     313.213       6.212      -13.20        0.00
       4150.0      618.59     315.411       5.392      -13.10        0.00
       4650.0      581.27     317.924       4.593      -12.00        0.00
       5177.6      543.94     320.610       3.763       -9.70        0.00
       5732.8      506.84     323.480       2.899       -6.60        0.00
       6315.5      470.17     326.258       2.175       -3.20        0.00
       6925.9      434.13     329.099       1.497       -0.30        0.00
       7563.8      398.88     331.582       1.120        1.30        0.00
       8229.3      364.59     334.065       0.787        1.30        0.00
       8922.4      331.38     336.200       0.544        0.40        0.00
       9643.1      299.38     338.102       0.347       -1.00        0.00
      10391.4      268.72     339.802       0.190       -2.90        0.00
      11167.2      239.49     341.230       0.114       -4.30        0.00
      11970.7      211.81     342.889       0.060       -4.50        0.00
      12801.7      185.81     345.010       0.027       -2.80        0.00
      13660.3      161.60     348.292       0.011       -0.60        0.00
      14546.6      139.36     354.478       0.010       -0.50        0.00
      15460.3      119.24     364.703       0.010       -2.20        0.00
      16401.7      101.39     380.539       0.010       -2.50        0.00
      17370.7       85.80     400.375       0.010       -3.00        0.00
   243.6251     ,  33,  1012.  day,levels,pres0
         46.6     1006.68     297.876      16.500       -1.00        0.00
        160.3      993.76     297.905      16.500       -1.00        0.00
        301.7      977.87     297.911      16.500       -1.40        0.00
        470.7      959.12     297.911      16.500       -1.70        0.00
        667.2      937.67     299.235      15.004       -1.80        0.00
        891.4      913.70     300.136      14.054       -2.10        0.00
       1143.1      887.38     301.200      13.020       -2.60        0.00
       1422.4      858.91     302.536      11.982       -3.60        0.00
       1729.3      828.51     304.035      10.891       -4.90        0.00
       2063.8      796.40     305.737       9.860       -6.70        0.00
       2425.9      762.83     307.545       8.829       -8.70        0.00
       2815.5      728.03     309.369       7.929      -10.60        0.00
       3232.8      692.23     311.280       7.036      -12.20        0.00
       3677.6      655.67     313.213       6.212      -13.20        0.00
       4150.0      618.59     315.411       5.392      -13.10        0.00
       4650.0      581.27     317.924       4.593      -12.00        0.00
       5177.6      543.94     320.610       3.763       -9.70        0.00
       5732.8      506.84     323.480       2.899       -6.60        0.00
       6315.5      470.17     326.258       2.175       -3.20        0.00
       6925.9      434.13     329.099       1.497       -0.30        0.00
       7563.8      398.88     331.582       1.120        1.30        0.00
       8229.3      364.59     334.065       0.787        1.30        0.00
       8922.4      331.38     336.200       0.544        0.40        0.00
       9643.1      299.38     338.102       0.347       -1.00        0.00
      10391.4      268.72     339.802       0.190       -2.90        0.00
      11167.2      239.49     341.230       0.114       -4.30        0.00
      11970.7      211.81     342.889       0.060       -4.50        0.00
      12801.7      185.81     345.010       0.027       -2.80        0.00
      13660.3      161.60     348.292       0.011       -0.60        0.00
      14546.6      139.36     354.478       0.010       -0.50        0.00
      15460.3      119.24     364.703       0.010       -2.20        0.00
      16401.7      101.39     380.539       0.010       -2.50        0.00
      17370.7       85.80     400.375       0.010       -3.00        0.00
   243.6667     ,  33,  1012.  day,levels,pres0
         46.6     1006.68     297.876      16.500       -1.00        0.00
        160.3      993.76     297.905      16.500       -1.00        0.00
        301.7      977.87     297.911      16.500       -1.40        0.00
        470.7      959.12     297.911      16.500       -1.70        0.00
        667.2      937.67     299.235      15.004       -1.80        0.00
        891.4      913.70     300.136      14.054       -2.10        0.00
       1143.1      887.38     301.200      13.020       -2.60        0.00
       1422.4      858.91     302.536      11.982       -3.60        0.00
       1729.3      828.51     304.035      10.891       -4.90        0.00
       2063.8      796.40     305.737       9.860       -6.70        0.00
       2425.9      762.83     307.545       8.829       -8.70        0.00
       2815.5      728.03     309.369       7.929      -10.60        0.00
       3232.8      692.23     311.280       7.036      -12.20        0.00
       3677.6      655.67     313.213       6.212      -13.20        0.00
       4150.0      618.59     315.411       5.392      -13.10        0.00
       4650.0      581.27     317.924       4.593      -12.00        0.00
       5177.6      543.94     320.610       3.763       -9.70        0.00
       5732.8      506.84     323.480       2.899       -6.60        0.00
       6315.5      470.17     326.258       2.175       -3.20        0.00
       6925.9      434.13     329.099       1.497       -0.30        0.00
       7563.8      398.88     331.582       1.120        1.30        0.00
       8229.3      364.59     334.065       0.787        1.30        0.00
       8922.4      331.38     336.200       0.544        0.40        0.00
       9643.1      299.38     338.102       0.347       -1.00        0.00
      10391.4      268.72     339.802       0.190       -2.90        0.00
      11167.2      239.49     341.230       0.114       -4.30        0.00
      11970.7      211.81     342.889       0.060       -4.50        0.00
      12801.7      185.81     345.010       0.027       -2.80        0.00
      13660.3      161.60     348.292       0.011       -0.60        0.00
      14546.6      139.36     354.478       0.010       -0.50        0.00
      15460.3      119.24     364.703       0.010       -2.20        0.00
      16401.7      101.39     380.539       0.010       -2.50        0.00
      17370.7       85.80     400.375       0.010       -3.00        0.00
   243.7084     ,  33,  1012.  day,levels,pres0
         46.6     1006.68     297.876      16.500       -1.00        0.00
        160.3      993.76     297.905      16.500       -1.00        0.00
        301.7      977.87     297.911      16.500       -1.40        0.00
        470.7      959.12     297.911      16.500       -1.70        0.00
        667.2      937.67     299.235      15.004       -1.80        0.00
        891.4      913.70     300.136      14.054       -2.10        0.00
       1143.1      887.38     301.200      13.020       -2.60        0.00
       1422.4      858.91     302.536      11.982       -3.60        0.00
       1729.3      828.51     304.035      10.891       -4.90        0.00
       2063.8      796.40     305.737       9.860       -6.70        0.00
       2425.9      762.83     307.545       8.829       -8.70        0.00
       2815.5      728.03     309.369       7.929      -10.60        0.00
       3232.8      692.23     311.280       7.036      -12.20        0.00
       3677.6      655.67     313.213       6.212      -13.20        0.00
       4150.0      618.59     315.411       5.392      -13.10        0.00
       4650.0      581.27     317.924       4.593      -12.00        0.00
       5177.6      543.94     320.610       3.763       -9.70        0.00
       5732.8      506.84     323.480       2.899       -6.60        0.00
       6315.5      470.17     326.258       2.175       -3.20        0.00
       6925.9      434.13     329.099       1.497       -0.30        0.00
       7563.8      398.88     331.582       1.120        1.30        0.00
       8229.3      364.59     334.065       0.787        1.30        0.00
       8922.4      331.38     336.200       0.544        0.40        0.00
       9643.1      299.38     338.102       0.347       -1.00        0.00
      10391.4      268.72     339.802       0.190       -2.90        0.00
      11167.2      239.49     341.230       0.114       -4.30        0.00
      11970.7      211.81     342.889       0.060       -4.50        0.00
      12801.7      185.81     345.010       0.027       -2.80        0.00
      13660.3      161.60     348.292       0.011       -0.60        0.00
      14546.6      139.36     354.478       0.010       -0.50        0.00
      15460.3      119.24     364.703       0.010       -2.20        0.00
      16401.7      101.39     380.539       0.010       -2.50        0.00
      17370.7       85.80     400.375       0.010       -3.00        0.00
   243.7501     ,  33,  1012.  day,levels,pres0
         46.6     1006.68     297.876      16.500       -1.00        0.00
        160.3      993.76     297.905      16.500       -1.00        0.00
        301.7      977.87     297.911      16.500       -1.40        0.00
        470.7      959.12     297.911      16.500       -1.70        0.00
        667.2      937.67     299.235      15.004       -1.80        0.00
        891.4      913.70     300.136      14.054       -2.10        0.00
       1143.1      887.38     301.200      13.020       -2.60        0.00
       1422.4      858.91     302.536      11.982       -3.60        0.00
       1729.3      828.51     304.035      10.891       -4.90        0.00
       2063.8      796.40     305.737       9.860       -6.70        0.00
       2425.9      762.83     307.545       8.829       -8.70        0.00
       2815.5      728.03     309.369       7.929      -10.60        0.00
       3232.8      692.23     311.280       7.036      -12.20        0.00
       3677.6      655.67     313.213       6.212      -13.20        0.00
       4150.0      618.59     315.411       5.392      -13.10        0.00
       4650.0      581.27     317.924       4.593      -12.00        0.00
       5177.6      543.94     320.610       3.763       -9.70        0.00
       5732.8      506.84     323.480       2.899       -6.60        0.00
       6315.5      470.17     326.258       2.175       -3.20        0.00
       6925.9      434.13     329.099       1.497       -0.30        0.00
       7563.8      398.88     331.582       1.120        1.30        0.00
       8229.3      364.59     334.065       0.787        1.30        0.00
       8922.4      331.38     336.200       0.544        0.40        0.00
       9643.1      299.38     338.102       0.347       -1.00        0.00
      10391.4      268.72     339.802       0.190       -2.90        0.00
      11167.2      239.49     341.230       0.114       -4.30        0.00
      11970.7      211.81     342.889       0.060       -4.50        0.00
      12801.7      185.81     345.010       0.027       -2.80        0.00
      13660.3      161.60     348.292       0.011       -0.60        0.00
      14546.6      139.36     354.478       0.010       -0.50        0.00
      15460.3      119.24     364.703       0.010       -2.20        0.00
      16401.7      101.39     380.539       0.010       -2.50        0.00
      17370.7       85.80     400.375       0.010       -3.00        0.00
   243.7918     ,  33,  1012.  day,levels,pres0
         46.6     1006.68     297.876      16.500       -1.00        0.00
        160.3      993.76     297.905      16.500       -1.00        0.00
        301.7      977.87     297.911      16.500       -1.40        0.00
        470.7      959.12     297.911      16.500       -1.70        0.00
        667.2      937.67     299.235      15.004       -1.80        0.00
        891.4      913.70     300.136      14.054       -2.10        0.00
       1143.1      887.38     301.200      13.020       -2.60        0.00
       1422.4      858.91     302.536      11.982       -3.60        0.00
       1729.3      828.51     304.035      10.891       -4.90        0.00
       2063.8      796.40     305.737       9.860       -6.70        0.00
       2425.9      762.83     307.545       8.829       -8.70        0.00
       2815.5      728.03     309.369       7.929      -10.60        0.00
       3232.8      692.23     311.280       7.036      -12.20        0.00
       3677.6      655.67     313.213       6.212      -13.20        0.00
       4150.0      618.59     315.411       5.392      -13.10        0.00
       4650.0      581.27     317.924       4.593      -12.00        0.00
       5177.6      543.94     320.610       3.763       -9.70        0.00
       5732.8      506.84     323.480       2.899       -6.60        0.00
       6315.5      470.17     326.258       2.175       -3.20        0.00
       6925.9      434.13     329.099       1.497       -0.30        0.00
       7563.8      398.88     331.582       1.120        1.30        0.00
       8229.3      364.59     334.065       0.787        1.30        0.00
       8922.4      331.38     336.200       0.544        0.40        0.00
       9643.1      299.38     338.102       0.347       -1.00        0.00
      10391.4      268.72     339.802       0.190       -2.90        0.00
      11167.2      239.49     341.230       0.114       -4.30        0.00
      11970.7      211.81     342.889       0.060       -4.50        0.00
      12801.7      185.81     345.010       0.027       -2.80        0.00
      13660.3      161.60     348.292       0.011       -0.60        0.00
      14546.6      139.36     354.478       0.010       -0.50        0.00
      15460.3      119.24     364.703       0.010       -2.20        0.00
      16401.7      101.39     380.539       0.010       -2.50        0.00
      17370.7       85.80     400.375       0.010       -3.00        0.00
   243.8334     ,  33,  1012.  day,levels,pres0
         46.6     1006.68     297.876      16.500       -1.00        0.00
        160.3      993.76     297.905      16.500       -1.00        0.00
        301.7      977.87     297.911      16.500       -1.40        0.00
        470.7      959.12     297.911      16.500       -1.70        0.00
        667.2      937.67     299.235      15.004       -1.80        0.00
        891.4      913.70     300.136      14.054       -2.10        0.00
       1143.1      887.38     301.200      13.020       -2.60        0.00
       1422.4      858.91     302.536      11.982       -3.60        0.00
       1729.3      828.51     304.035      10.891       -4.90        0.00
       2063.8      796.40     305.737       9.860       -6.70        0.00
       2425.9      762.83     307.545       8.829       -8.70        0.00
       2815.5      728.03     309.369       7.929      -10.60        0.00
       3232.8      692.23     311.280       7.036      -12.20        0.00
       3677.6      655.67     313.213       6.212      -13.20        0.00
       4150.0      618.59     315.411       5.392      -13.10        0.00
       4650.0      581.27     317.924       4.593      -12.00        0.00
       5177.6      543.94     320.610       3.763       -9.70        0.00
       5732.8      506.84     323.480       2.899       -6.60        0.00
       6315.5      470.17     326.258       2.175       -3.20        0.00
       6925.9      434.13     329.099       1.497       -0.30        0.00
       7563.8      398.88     331.582       1.120        1.30        0.00
       8229.3      364.59     334.065       0.787        1.30        0.00
       8922.4      331.38     336.200       0.544        0.40        0.00
       9643.1      299.38     338.102       0.347       -1.00        0.00
      10391.4      268.72     339.802       0.190       -2.90        0.00
      11167.2      239.49     341.230       0.114       -4.30        0.00
      11970.7      211.81     342.889       0.060       -4.50        0.00
      12801.7      185.81     345.010       0.027       -2.80        0.00
      13660.3      161.60     348.292       0.011       -0.60        0.00
      14546.6      139.36     354.478       0.010       -0.50        0.00
      15460.3      119.24     364.703       0.010       -2.20        0.00
      16401.7      101.39     380.539       0.010       -2.50        0.00
      17370.7       85.80     400.375       0.010       -3.00        0.00
   243.8751     ,  33,  1012.  day,levels,pres0
         46.6     1006.68     297.876      16.500       -1.00        0.00
        160.3      993.76     297.905      16.500       -1.00        0.00
        301.7      977.87     297.911      16.500       -1.40        0.00
        470.7      959.12     297.911      16.500       -1.70        0.00
        667.2      937.67     299.235      15.004       -1.80        0.00
        891.4      913.70     300.136      14.054       -2.10        0.00
       1143.1      887.38     301.200      13.020       -2.60        0.00
       1422.4      858.91     302.536      11.982       -3.60        0.00
       1729.3      828.51     304.035      10.891       -4.90        0.00
       2063.8      796.40     305.737       9.860       -6.70        0.00
       2425.9      762.83     307.545       8.829       -8.70        0.00
       2815.5      728.03     309.369       7.929      -10.60        0.00
       3232.8      692.23     311.280       7.036      -12.20        0.00
       3677.6      655.67     313.213       6.212      -13.20        0.00
       4150.0      618.59     315.411       5.392      -13.10        0.00
       4650.0      581.27     317.924       4.593      -12.00        0.00
       5177.6      543.94     320.610       3.763       -9.70        0.00
       5732.8      506.84     323.480       2.899       -6.60        0.00
       6315.5      470.17     326.258       2.175       -3.20        0.00
       6925.9      434.13     329.099       1.497       -0.30        0.00
       7563.8      398.88     331.582       1.120        1.30        0.00
       8229.3      364.59     334.065       0.787        1.30        0.00
       8922.4      331.38     336.200       0.544        0.40        0.00
       9643.1      299.38     338.102       0.347       -1.00        0.00
      10391.4      268.72     339.802       0.190       -2.90        0.00
      11167.2      239.49     341.230       0.114       -4.30        0.00
      11970.7      211.81     342.889       0.060       -4.50        0.00
      12801.7      185.81     345.010       0.027       -2.80        0.00
      13660.3      161.60     348.292       0.011       -0.60        0.00
      14546.6      139.36     354.478       0.010       -0.50        0.00
      15460.3      119.24     364.703       0.010       -2.20        0.00
      16401.7      101.39     380.539       0.010       -2.50        0.00
      17370.7       85.80     400.375       0.010       -3.00        0.00
   243.9168     ,  33,  1012.  day,levels,pres0
         46.6     1006.68     297.876      16.500       -1.00        0.00
        160.3      993.76     297.905      16.500       -1.00        0.00
        301.7      977.87     297.911      16.500       -1.40        0.00
        470.7      959.12     297.911      16.500       -1.70        0.00
        667.2      937.67     299.235      15.004       -1.80        0.00
        891.4      913.70     300.136      14.054       -2.10        0.00
       1143.1      887.38     301.200      13.020       -2.60        0.00
       1422.4      858.91     302.536      11.982       -3.60        0.00
       1729.3      828.51     304.035      10.891       -4.90        0.00
       2063.8      796.40     305.737       9.860       -6.70        0.00
       2425.9      762.83     307.545       8.829       -8.70        0.00
       2815.5      728.03     309.369       7.929      -10.60        0.00
       3232.8      692.23     311.280       7.036      -12.20        0.00
       3677.6      655.67     313.213       6.212      -13.20        0.00
       4150.0      618.59     315.411       5.392      -13.10        0.00
       4650.0      581.27     317.924       4.593      -12.00        0.00
       5177.6      543.94     320.610       3.763       -9.70        0.00
       5732.8      506.84     323.480       2.899       -6.60        0.00
       6315.5      470.17     326.258       2.175       -3.20        0.00
       6925.9      434.13     329.099       1.497       -0.30        0.00
       7563.8      398.88     331.582       1.120        1.30        0.00
       8229.3      364.59     334.065       0.787        1.30        0.00
       8922.4      331.38     336.200       0.544        0.40        0.00
       9643.1      299.38     338.102       0.347       -1.00        0.00
      10391.4      268.72     339.802       0.190       -2.90        0.00
      11167.2      239.49     341.230       0.114       -4.30        0.00
      11970.7      211.81     342.889       0.060       -4.50        0.00
      12801.7      185.81     345.010       0.027       -2.80        0.00
      13660.3      161.60     348.292       0.011       -0.60        0.00
      14546.6      139.36     354.478       0.010       -0.50        0.00
      15460.3      119.24     364.703       0.010       -2.20        0.00
      16401.7      101.39     380.539       0.010       -2.50        0.00
      17370.7       85.80     400.375       0.010       -3.00        0.00
   243.9585     ,  33,  1012.  day,levels,pres0
         46.6     1006.68     297.876      16.500       -1.00        0.00
        160.3      993.76     297.905      16.500       -1.00        0.00
        301.7      977.87     297.911      16.500       -1.40        0.00
        470.7      959.12     297.911      16.500       -1.70        0.00
        667.2      937.67     299.235      15.004       -1.80        0.00
        891.4      913.70     300.136      14.054       -2.10        0.00
       1143.1      887.38     301.200      13.020       -2.60        0.00
       1422.4      858.91     302.536      11.982       -3.60        0.00
       1729.3      828.51     304.035      10.891       -4.90        0.00
       2063.8      796.40     305.737       9.860       -6.70        0.00
       2425.9      762.83     307.545       8.829       -8.70        0.00
       2815.5      728.03     309.369       7.929      -10.60        0.00
       3232.8      692.23     311.280       7.036      -12.20        0.00
       3677.6      655.67     313.213       6.212      -13.20        0.00
       4150.0      618.59     315.411       5.392      -13.10        0.00
       4650.0      581.27     317.924       4.593      -12.00        0.00
       5177.6      543.94     320.610       3.763       -9.70        0.00
       5732.8      506.84     323.480       2.899       -6.60        0.00
       6315.5      470.17     326.258       2.175       -3.20        0.00
       6925.9      434.13     329.099       1.497       -0.30        0.00
       7563.8      398.88     331.582       1.120        1.30        0.00
       8229.3      364.59     334.065       0.787        1.30        0.00
       8922.4      331.38     336.200       0.544        0.40        0.00
       9643.1      299.38     338.102       0.347       -1.00        0.00
      10391.4      268.72     339.802       0.190       -2.90        0.00
      11167.2      239.49     341.230       0.114       -4.30        0.00
      11970.7      211.81     342.889       0.060       -4.50        0.00
      12801.7      185.81     345.010       0.027       -2.80        0.00
      13660.3      161.60     348.292       0.011       -0.60        0.00
      14546.6      139.36     354.478       0.010       -0.50        0.00
      15460.3      119.24     364.703       0.010       -2.20        0.00
      16401.7      101.39     380.539       0.010       -2.50        0.00
      17370.7       85.80     400.375       0.010       -3.00        0.00
   244.0001     ,  33,  1012.  day,levels,pres0
         46.6     1006.68     297.876      16.500       -1.00        0.00
        160.3      993.76     297.905      16.500       -1.00        0.00
        301.7      977.87     297.911      16.500       -1.40        0.00
        470.7      959.12     297.911      16.500       -1.70        0.00
        667.2      937.67     299.235      15.004       -1.80        0.00
        891.4      913.70     300.136      14.054       -2.10        0.00
       1143.1      887.38     301.200      13.020       -2.60        0.00
       1422.4      858.91     302.536      11.982       -3.60        0.00
       1729.3      828.51     304.035      10.891       -4.90        0.00
       2063.8      796.40     305.737       9.860       -6.70        0.00
       2425.9      762.83     307.545       8.829       -8.70        0.00
       2815.5      728.03     309.369       7.929      -10.60        0.00
       3232.8      692.23     311.280       7.036      -12.20        0.00
       3677.6      655.67     313.213       6.212      -13.20        0.00
       4150.0      618.59     315.411       5.392      -13.10        0.00
       4650.0      581.27     317.924       4.593      -12.00        0.00
       5177.6      543.94     320.610       3.763       -9.70        0.00
       5732.8      506.84     323.480       2.899       -6.60        0.00
       6315.5      470.17     326.258       2.175       -3.20        0.00
       6925.9      434.13     329.099       1.497       -0.30        0.00
       7563.8      398.88     331.582       1.120        1.30        0.00
       8229.3      364.59     334.065       0.787        1.30        0.00
       8922.4      331.38     336.200       0.544        0.40        0.00
       9643.1      299.38     338.102       0.347       -1.00        0.00
      10391.4      268.72     339.802       0.190       -2.90        0.00
      11167.2      239.49     341.230       0.114       -4.30        0.00
      11970.7      211.81     342.889       0.060       -4.50        0.00
      12801.7      185.81     345.010       0.027       -2.80        0.00
      13660.3      161.60     348.292       0.011       -0.60        0.00
      14546.6      139.36     354.478       0.010       -0.50        0.00
      15460.3      119.24     364.703       0.010       -2.20        0.00
      16401.7      101.39     380.539       0.010       -2.50        0.00
      17370.7       85.80     400.375       0.010       -3.00        0.00
   244.0418     ,  33,  1012.  day,levels,pres0
         46.6     1006.68     297.876      16.500       -1.00        0.00
        160.3      993.76     297.905      16.500       -1.00        0.00
        301.7      977.87     297.911      16.500       -1.40        0.00
        470.7      959.12     297.911      16.500       -1.70        0.00
        667.2      937.67     299.235      15.004       -1.80        0.00
        891.4      913.70     300.136      14.054       -2.10        0.00
       1143.1      887.38     301.200      13.020       -2.60        0.00
       1422.4      858.91     302.536      11.982       -3.60        0.00
       1729.3      828.51     304.035      10.891       -4.90        0.00
       2063.8      796.40     305.737       9.860       -6.70        0.00
       2425.9      762.83     307.545       8.829       -8.70        0.00
       2815.5      728.03     309.369       7.929      -10.60        0.00
       3232.8      692.23     311.280       7.036      -12.20        0.00
       3677.6      655.67     313.213       6.212      -13.20        0.00
       4150.0      618.59     315.411       5.392      -13.10        0.00
       4650.0      581.27     317.924       4.593      -12.00        0.00
       5177.6      543.94     320.610       3.763       -9.70        0.00
       5732.8      506.84     323.480       2.899       -6.60        0.00
       6315.5      470.17     326.258       2.175       -3.20        0.00
       6925.9      434.13     329.099       1.497       -0.30        0.00
       7563.8      398.88     331.582       1.120        1.30        0.00
       8229.3      364.59     334.065       0.787        1.30        0.00
       8922.4      331.38     336.200       0.544        0.40        0.00
       9643.1      299.38     338.102       0.347       -1.00        0.00
      10391.4      268.72     339.802       0.190       -2.90        0.00
      11167.2      239.49     341.230       0.114       -4.30        0.00
      11970.7      211.81     342.889       0.060       -4.50        0.00
      12801.7      185.81     345.010       0.027       -2.80        0.00
      13660.3      161.60     348.292       0.011       -0.60        0.00
      14546.6      139.36     354.478       0.010       -0.50        0.00
      15460.3      119.24     364.703       0.010       -2.20        0.00
      16401.7      101.39     380.539       0.010       -2.50        0.00
      17370.7       85.80     400.375       0.010       -3.00        0.00
   244.0835     ,  33,  1012.  day,levels,pres0
         46.6     1006.68     297.876      16.500       -1.00        0.00
        160.3      993.76     297.905      16.500       -1.00        0.00
        301.7      977.87     297.911      16.500       -1.40        0.00
        470.7      959.12     297.911      16.500       -1.70        0.00
        667.2      937.67     299.235      15.004       -1.80        0.00
        891.4      913.70     300.136      14.054       -2.10        0.00
       1143.1      887.38     301.200      13.020       -2.60        0.00
       1422.4      858.91     302.536      11.982       -3.60        0.00
       1729.3      828.51     304.035      10.891       -4.90        0.00
       2063.8      796.40     305.737       9.860       -6.70        0.00
       2425.9      762.83     307.545       8.829       -8.70        0.00
       2815.5      728.03     309.369       7.929      -10.60        0.00
       3232.8      692.23     311.280       7.036      -12.20        0.00
       3677.6      655.67     313.213       6.212      -13.20        0.00
       4150.0      618.59     315.411       5.392      -13.10        0.00
       4650.0      581.27     317.924       4.593      -12.00        0.00
       5177.6      543.94     320.610       3.763       -9.70        0.00
       5732.8      506.84     323.480       2.899       -6.60        0.00
       6315.5      470.17     326.258       2.175       -3.20        0.00
       6925.9      434.13     329.099       1.497       -0.30        0.00
       7563.8      398.88     331.582       1.120        1.30        0.00
       8229.3      364.59     334.065       0.787        1.30        0.00
       8922.4      331.38     336.200       0.544        0.40        0.00
       9643.1      299.38     338.102       0.347       -1.00        0.00
      10391.4      268.72     339.802       0.190       -2.90        0.00
      11167.2      239.49     341.230       0.114       -4.30        0.00
      11970.7      211.81     342.889       0.060       -4.50        0.00
      12801.7      185.81     345.010       0.027       -2.80        0.00
      13660.3      161.60     348.292       0.011       -0.60        0.00
      14546.6      139.36     354.478       0.010       -0.50        0.00
      15460.3      119.24     364.703       0.010       -2.20        0.00
      16401.7      101.39     380.539       0.010       -2.50        0.00
      17370.7       85.80     400.375       0.010       -3.00        0.00
   244.1251     ,  33,  1012.  day,levels,pres0
         46.6     1006.68     297.876      16.500       -1.00        0.00
        160.3      993.76     297.905      16.500       -1.00        0.00
        301.7      977.87     297.911      16.500       -1.40        0.00
        470.7      959.12     297.911      16.500       -1.70        0.00
        667.2      937.67     299.235      15.004       -1.80        0.00
        891.4      913.70     300.136      14.054       -2.10        0.00
       1143.1      887.38     301.200      13.020       -2.60        0.00
       1422.4      858.91     302.536      11.982       -3.60        0.00
       1729.3      828.51     304.035      10.891       -4.90        0.00
       2063.8      796.40     305.737       9.860       -6.70        0.00
       2425.9      762.83     307.545       8.829       -8.70        0.00
       2815.5      728.03     309.369       7.929      -10.60        0.00
       3232.8      692.23     311.280       7.036      -12.20        0.00
       3677.6      655.67     313.213       6.212      -13.20        0.00
       4150.0      618.59     315.411       5.392      -13.10        0.00
       4650.0      581.27     317.924       4.593      -12.00        0.00
       5177.6      543.94     320.610       3.763       -9.70        0.00
       5732.8      506.84     323.480       2.899       -6.60        0.00
       6315.5      470.17     326.258       2.175       -3.20        0.00
       6925.9      434.13     329.099       1.497       -0.30        0.00
       7563.8      398.88     331.582       1.120        1.30        0.00
       8229.3      364.59     334.065       0.787        1.30        0.00
       8922.4      331.38     336.200       0.544        0.40        0.00
       9643.1      299.38     338.102       0.347       -1.00        0.00
      10391.4      268.72     339.802       0.190       -2.90        0.00
      11167.2      239.49     341.230       0.114       -4.30        0.00
      11970.7      211.81     342.889       0.060       -4.50        0.00
      12801.7      185.81     345.010       0.027       -2.80        0.00
      13660.3      161.60     348.292       0.011       -0.60        0.00
      14546.6      139.36     354.478       0.010       -0.50        0.00
      15460.3      119.24     364.703       0.010       -2.20        0.00
      16401.7      101.39     380.539       0.010       -2.50        0.00
      17370.7       85.80     400.375       0.010       -3.00        0.00
   244.1668     ,  33,  1012.  day,levels,pres0
         46.6     1006.68     297.876      16.500       -1.00        0.00
        160.3      993.76     297.905      16.500       -1.00        0.00
        301.7      977.87     297.911      16.500       -1.40        0.00
        470.7      959.12     297.911      16.500       -1.70        0.00
        667.2      937.67     299.235      15.004       -1.80        0.00
        891.4      913.70     300.136      14.054       -2.10        0.00
       1143.1      887.38     301.200      13.020       -2.60        0.00
       1422.4      858.91     302.536      11.982       -3.60        0.00
       1729.3      828.51     304.035      10.891       -4.90        0.00
       2063.8      796.40     305.737       9.860       -6.70        0.00
       2425.9      762.83     307.545       8.829       -8.70        0.00
       2815.5      728.03     309.369       7.929      -10.60        0.00
       3232.8      692.23     311.280       7.036      -12.20        0.00
       3677.6      655.67     313.213       6.212      -13.20        0.00
       4150.0      618.59     315.411       5.392      -13.10        0.00
       4650.0      581.27     317.924       4.593      -12.00        0.00
       5177.6      543.94     320.610       3.763       -9.70        0.00
       5732.8      506.84     323.480       2.899       -6.60        0.00
       6315.5      470.17     326.258       2.175       -3.20        0.00
       6925.9      434.13     329.099       1.497       -0.30        0.00
       7563.8      398.88     331.582       1.120        1.30        0.00
       8229.3      364.59     334.065       0.787        1.30        0.00
       8922.4      331.38     336.200       0.544        0.40        0.00
       9643.1      299.38     338.102       0.347       -1.00        0.00
      10391.4      268.72     339.802       0.190       -2.90        0.00
      11167.2      239.49     341.230       0.114       -4.30        0.00
      11970.7      211.81     342.889       0.060       -4.50        0.00
      12801.7      185.81     345.010       0.027       -2.80        0.00
      13660.3      161.60     348.292       0.011       -0.60        0.00
      14546.6      139.36     354.478       0.010       -0.50        0.00
      15460.3      119.24     364.703       0.010       -2.20        0.00
      16401.7      101.39     380.539       0.010       -2.50        0.00
      17370.7       85.80     400.375       0.010       -3.00        0.00
   244.2085     ,  33,  1012.  day,levels,pres0
         46.6     1006.68     297.876      16.500       -1.00        0.00
        160.3      993.76     297.905      16.500       -1.00        0.00
        301.7      977.87     297.911      16.500       -1.40        0.00
        470.7      959.12     297.911      16.500       -1.70        0.00
        667.2      937.67     299.235      15.004       -1.80        0.00
        891.4      913.70     300.136      14.054       -2.10        0.00
       1143.1      887.38     301.200      13.020       -2.60        0.00
       1422.4      858.91     302.536      11.982       -3.60        0.00
       1729.3      828.51     304.035      10.891       -4.90        0.00
       2063.8      796.40     305.737       9.860       -6.70        0.00
       2425.9      762.83     307.545       8.829       -8.70        0.00
       2815.5      728.03     309.369       7.929      -10.60        0.00
       3232.8      692.23     311.280       7.036      -12.20        0.00
       3677.6      655.67     313.213       6.212      -13.20        0.00
       4150.0      618.59     315.411       5.392      -13.10        0.00
       4650.0      581.27     317.924       4.593      -12.00        0.00
       5177.6      543.94     320.610       3.763       -9.70        0.00
       5732.8      506.84     323.480       2.899       -6.60        0.00
       6315.5      470.17     326.258       2.175       -3.20        0.00
       6925.9      434.13     329.099       1.497       -0.30        0.00
       7563.8      398.88     331.582       1.120        1.30        0.00
       8229.3      364.59     334.065       0.787        1.30        0.00
       8922.4      331.38     336.200       0.544        0.40        0.00
       9643.1      299.38     338.102       0.347       -1.00        0.00
      10391.4      268.72     339.802       0.190       -2.90        0.00
      11167.2      239.49     341.230       0.114       -4.30        0.00
      11970.7      211.81     342.889       0.060       -4.50        0.00
      12801.7      185.81     345.010       0.027       -2.80        0.00
      13660.3      161.60     348.292       0.011       -0.60        0.00
      14546.6      139.36     354.478       0.010       -0.50        0.00
      15460.3      119.24     364.703       0.010       -2.20        0.00
      16401.7      101.39     380.539       0.010       -2.50        0.00
      17370.7       85.80     400.375       0.010       -3.00        0.00
   244.2502     ,  33,  1012.  day,levels,pres0
         46.6     1006.68     297.876      16.500       -1.00        0.00
        160.3      993.76     297.905      16.500       -1.00        0.00
        301.7      977.87     297.911      16.500       -1.40        0.00
        470.7      959.12     297.911      16.500       -1.70        0.00
        667.2      937.67     299.235      15.004       -1.80        0.00
        891.4      913.70     300.136      14.054       -2.10        0.00
       1143.1      887.38     301.200      13.020       -2.60        0.00
       1422.4      858.91     302.536      11.982       -3.60        0.00
       1729.3      828.51     304.035      10.891       -4.90        0.00
       2063.8      796.40     305.737       9.860       -6.70        0.00
       2425.9      762.83     307.545       8.829       -8.70        0.00
       2815.5      728.03     309.369       7.929      -10.60        0.00
       3232.8      692.23     311.280       7.036      -12.20        0.00
       3677.6      655.67     313.213       6.212      -13.20        0.00
       4150.0      618.59     315.411       5.392      -13.10        0.00
       4650.0      581.27     317.924       4.593      -12.00        0.00
       5177.6      543.94     320.610       3.763       -9.70        0.00
       5732.8      506.84     323.480       2.899       -6.60        0.00
       6315.5      470.17     326.258       2.175       -3.20        0.00
       6925.9      434.13     329.099       1.497       -0.30        0.00
       7563.8      398.88     331.582       1.120        1.30        0.00
       8229.3      364.59     334.065       0.787        1.30        0.00
       8922.4      331.38     336.200       0.544        0.40        0.00
       9643.1      299.38     338.102       0.347       -1.00        0.00
      10391.4      268.72     339.802       0.190       -2.90        0.00
      11167.2      239.49     341.230       0.114       -4.30        0.00
      11970.7      211.81     342.889       0.060       -4.50        0.00
      12801.7      185.81     345.010       0.027       -2.80        0.00
      13660.3      161.60     348.292       0.011       -0.60        0.00
      14546.6      139.36     354.478       0.010       -0.50        0.00
      15460.3      119.24     364.703       0.010       -2.20        0.00
      16401.7      101.39     380.539       0.010       -2.50        0.00
      17370.7       85.80     400.375       0.010       -3.00        0.00
   244.2918     ,  33,  1012.  day,levels,pres0
         46.6     1006.68     297.876      16.500       -1.00        0.00
        160.3      993.76     297.905      16.500       -1.00        0.00
        301.7      977.87     297.911      16.500       -1.40        0.00
        470.7      959.12     297.911      16.500       -1.70        0.00
        667.2      937.67     299.235      15.004       -1.80        0.00
        891.4      913.70     300.136      14.054       -2.10        0.00
       1143.1      887.38     301.200      13.020       -2.60        0.00
       1422.4      858.91     302.536      11.982       -3.60        0.00
       1729.3      828.51     304.035      10.891       -4.90        0.00
       2063.8      796.40     305.737       9.860       -6.70        0.00
       2425.9      762.83     307.545       8.829       -8.70        0.00
       2815.5      728.03     309.369       7.929      -10.60        0.00
       3232.8      692.23     311.280       7.036      -12.20        0.00
       3677.6      655.67     313.213       6.212      -13.20        0.00
       4150.0      618.59     315.411       5.392      -13.10        0.00
       4650.0      581.27     317.924       4.593      -12.00        0.00
       5177.6      543.94     320.610       3.763       -9.70        0.00
       5732.8      506.84     323.480       2.899       -6.60        0.00
       6315.5      470.17     326.258       2.175       -3.20        0.00
       6925.9      434.13     329.099       1.497       -0.30        0.00
       7563.8      398.88     331.582       1.120        1.30        0.00
       8229.3      364.59     334.065       0.787        1.30        0.00
       8922.4      331.38     336.200       0.544        0.40        0.00
       9643.1      299.38     338.102       0.347       -1.00        0.00
      10391.4      268.72     339.802       0.190       -2.90        0.00
      11167.2      239.49     341.230       0.114       -4.30        0.00
      11970.7      211.81     342.889       0.060       -4.50        0.00
      12801.7      185.81     345.010       0.027       -2.80        0.00
      13660.3      161.60     348.292       0.011       -0.60        0.00
      14546.6      139.36     354.478       0.010       -0.50        0.00
      15460.3      119.24     364.703       0.010       -2.20        0.00
      16401.7      101.39     380.539       0.010       -2.50        0.00
      17370.7       85.80     400.375       0.010       -3.00        0.00
   244.3335     ,  33,  1012.  day,levels,pres0
         46.6     1006.68     297.876      16.500       -1.00        0.00
        160.3      993.76     297.905      16.500       -1.00        0.00
        301.7      977.87     297.911      16.500       -1.40        0.00
        470.7      959.12     297.911      16.500       -1.70        0.00
        667.2      937.67     299.235      15.004       -1.80        0.00
        891.4      913.70     300.136      14.054       -2.10        0.00
       1143.1      887.38     301.200      13.020       -2.60        0.00
       1422.4      858.91     302.536      11.982       -3.60        0.00
       1729.3      828.51     304.035      10.891       -4.90        0.00
       2063.8      796.40     305.737       9.860       -6.70        0.00
       2425.9      762.83     307.545       8.829       -8.70        0.00
       2815.5      728.03     309.369       7.929      -10.60        0.00
       3232.8      692.23     311.280       7.036      -12.20        0.00
       3677.6      655.67     313.213       6.212      -13.20        0.00
       4150.0      618.59     315.411       5.392      -13.10        0.00
       4650.0      581.27     317.924       4.593      -12.00        0.00
       5177.6      543.94     320.610       3.763       -9.70        0.00
       5732.8      506.84     323.480       2.899       -6.60        0.00
       6315.5      470.17     326.258       2.175       -3.20        0.00
       6925.9      434.13     329.099       1.497       -0.30        0.00
       7563.8      398.88     331.582       1.120        1.30        0.00
       8229.3      364.59     334.065       0.787        1.30        0.00
       8922.4      331.38     336.200       0.544        0.40        0.00
       9643.1      299.38     338.102       0.347       -1.00        0.00
      10391.4      268.72     339.802       0.190       -2.90        0.00
      11167.2      239.49     341.230       0.114       -4.30        0.00
      11970.7      211.81     342.889       0.060       -4.50        0.00
      12801.7      185.81     345.010       0.027       -2.80        0.00
      13660.3      161.60     348.292       0.011       -0.60        0.00
      14546.6      139.36     354.478       0.010       -0.50        0.00
      15460.3      119.24     364.703       0.010       -2.20        0.00
      16401.7      101.39     380.539       0.010       -2.50        0.00
      17370.7       85.80     400.375       0.010       -3.00        0.00
   244.3752     ,  33,  1012.  day,levels,pres0
         46.6     1006.68     297.876      16.500       -1.00        0.00
        160.3      993.76     297.905      16.500       -1.00        0.00
        301.7      977.87     297.911      16.500       -1.40        0.00
        470.7      959.12     297.911      16.500       -1.70        0.00
        667.2      937.67     299.235      15.004       -1.80        0.00
        891.4      913.70     300.136      14.054       -2.10        0.00
       1143.1      887.38     301.200      13.020       -2.60        0.00
       1422.4      858.91     302.536      11.982       -3.60        0.00
       1729.3      828.51     304.035      10.891       -4.90        0.00
       2063.8      796.40     305.737       9.860       -6.70        0.00
       2425.9      762.83     307.545       8.829       -8.70        0.00
       2815.5      728.03     309.369       7.929      -10.60        0.00
       3232.8      692.23     311.280       7.036      -12.20        0.00
       3677.6      655.67     313.213       6.212      -13.20        0.00
       4150.0      618.59     315.411       5.392      -13.10        0.00
       4650.0      581.27     317.924       4.593      -12.00        0.00
       5177.6      543.94     320.610       3.763       -9.70        0.00
       5732.8      506.84     323.480       2.899       -6.60        0.00
       6315.5      470.17     326.258       2.175       -3.20        0.00
       6925.9      434.13     329.099       1.497       -0.30        0.00
       7563.8      398.88     331.582       1.120        1.30        0.00
       8229.3      364.59     334.065       0.787        1.30        0.00
       8922.4      331.38     336.200       0.544        0.40        0.00
       9643.1      299.38     338.102       0.347       -1.00        0.00
      10391.4      268.72     339.802       0.190       -2.90        0.00
      11167.2      239.49     341.230       0.114       -4.30        0.00
      11970.7      211.81     342.889       0.060       -4.50        0.00
      12801.7      185.81     345.010       0.027       -2.80        0.00
      13660.3      161.60     348.292       0.011       -0.60        0.00
      14546.6      139.36     354.478       0.010       -0.50        0.00
      15460.3      119.24     364.703       0.010       -2.20        0.00
      16401.7      101.39     380.539       0.010       -2.50        0.00
      17370.7       85.80     400.375       0.010       -3.00        0.00
   244.4168     ,  33,  1012.  day,levels,pres0
         46.6     1006.68     297.876      16.500       -1.00        0.00
        160.3      993.76     297.905      16.500       -1.00        0.00
        301.7      977.87     297.911      16.500       -1.40        0.00
        470.7      959.12     297.911      16.500       -1.70        0.00
        667.2      937.67     299.235      15.004       -1.80        0.00
        891.4      913.70     300.136      14.054       -2.10        0.00
       1143.1      887.38     301.200      13.020       -2.60        0.00
       1422.4      858.91     302.536      11.982       -3.60        0.00
       1729.3      828.51     304.035      10.891       -4.90        0.00
       2063.8      796.40     305.737       9.860       -6.70        0.00
       2425.9      762.83     307.545       8.829       -8.70        0.00
       2815.5      728.03     309.369       7.929      -10.60        0.00
       3232.8      692.23     311.280       7.036      -12.20        0.00
       3677.6      655.67     313.213       6.212      -13.20        0.00
       4150.0      618.59     315.411       5.392      -13.10        0.00
       4650.0      581.27     317.924       4.593      -12.00        0.00
       5177.6      543.94     320.610       3.763       -9.70        0.00
       5732.8      506.84     323.480       2.899       -6.60        0.00
       6315.5      470.17     326.258       2.175       -3.20        0.00
       6925.9      434.13     329.099       1.497       -0.30        0.00
       7563.8      398.88     331.582       1.120        1.30        0.00
       8229.3      364.59     334.065       0.787        1.30        0.00
       8922.4      331.38     336.200       0.544        0.40        0.00
       9643.1      299.38     338.102       0.347       -1.00        0.00
      10391.4      268.72     339.802       0.190       -2.90        0.00
      11167.2      239.49     341.230       0.114       -4.30        0.00
      11970.7      211.81     342.889       0.060       -4.50        0.00
      12801.7      185.81     345.010       0.027       -2.80        0.00
      13660.3      161.60     348.292       0.011       -0.60        0.00
      14546.6      139.36     354.478       0.010       -0.50        0.00
      15460.3      119.24     364.703       0.010       -2.20        0.00
      16401.7      101.39     380.539       0.010       -2.50        0.00
      17370.7       85.80     400.375       0.010       -3.00        0.00
   244.4585     ,  33,  1012.  day,levels,pres0
         46.6     1006.68     297.876      16.500       -1.00        0.00
        160.3      993.76     297.905      16.500       -1.00        0.00
        301.7      977.87     297.911      16.500       -1.40        0.00
        470.7      959.12     297.911      16.500       -1.70        0.00
        667.2      937.67     299.235      15.004       -1.80        0.00
        891.4      913.70     300.136      14.054       -2.10        0.00
       1143.1      887.38     301.200      13.020       -2.60        0.00
       1422.4      858.91     302.536      11.982       -3.60        0.00
       1729.3      828.51     304.035      10.891       -4.90        0.00
       2063.8      796.40     305.737       9.860       -6.70        0.00
       2425.9      762.83     307.545       8.829       -8.70        0.00
       2815.5      728.03     309.369       7.929      -10.60        0.00
       3232.8      692.23     311.280       7.036      -12.20        0.00
       3677.6      655.67     313.213       6.212      -13.20        0.00
       4150.0      618.59     315.411       5.392      -13.10        0.00
       4650.0      581.27     317.924       4.593      -12.00        0.00
       5177.6      543.94     320.610       3.763       -9.70        0.00
       5732.8      506.84     323.480       2.899       -6.60        0.00
       6315.5      470.17     326.258       2.175       -3.20        0.00
       6925.9      434.13     329.099       1.497       -0.30        0.00
       7563.8      398.88     331.582       1.120        1.30        0.00
       8229.3      364.59     334.065       0.787        1.30        0.00
       8922.4      331.38     336.200       0.544        0.40        0.00
       9643.1      299.38     338.102       0.347       -1.00        0.00
      10391.4      268.72     339.802       0.190       -2.90        0.00
      11167.2      239.49     341.230       0.114       -4.30        0.00
      11970.7      211.81     342.889       0.060       -4.50        0.00
      12801.7      185.81     345.010       0.027       -2.80        0.00
      13660.3      161.60     348.292       0.011       -0.60        0.00
      14546.6      139.36     354.478       0.010       -0.50        0.00
      15460.3      119.24     364.703       0.010       -2.20        0.00
      16401.7      101.39     380.539       0.010       -2.50        0.00
      17370.7       85.80     400.375       0.010       -3.00        0.00
   244.5002     ,  33,  1012.  day,levels,pres0
         46.6     1006.68     297.876      16.500       -1.00        0.00
        160.3      993.76     297.905      16.500       -1.00        0.00
        301.7      977.87     297.911      16.500       -1.40        0.00
        470.7      959.12     297.911      16.500       -1.70        0.00
        667.2      937.67     299.235      15.004       -1.80        0.00
        891.4      913.70     300.136      14.054       -2.10        0.00
       1143.1      887.38     301.200      13.020       -2.60        0.00
       1422.4      858.91     302.536      11.982       -3.60        0.00
       1729.3      828.51     304.035      10.891       -4.90        0.00
       2063.8      796.40     305.737       9.860       -6.70        0.00
       2425.9      762.83     307.545       8.829       -8.70        0.00
       2815.5      728.03     309.369       7.929      -10.60        0.00
       3232.8      692.23     311.280       7.036      -12.20        0.00
       3677.6      655.67     313.213       6.212      -13.20        0.00
       4150.0      618.59     315.411       5.392      -13.10        0.00
       4650.0      581.27     317.924       4.593      -12.00        0.00
       5177.6      543.94     320.610       3.763       -9.70        0.00
       5732.8      506.84     323.480       2.899       -6.60        0.00
       6315.5      470.17     326.258       2.175       -3.20        0.00
       6925.9      434.13     329.099       1.497       -0.30        0.00
       7563.8      398.88     331.582       1.120        1.30        0.00
       8229.3      364.59     334.065       0.787        1.30        0.00
       8922.4      331.38     336.200       0.544        0.40        0.00
       9643.1      299.38     338.102       0.347       -1.00        0.00
      10391.4      268.72     339.802       0.190       -2.90        0.00
      11167.2      239.49     341.230       0.114       -4.30        0.00
      11970.7      211.81     342.889       0.060       -4.50        0.00
      12801.7      185.81     345.010       0.027       -2.80        0.00
      13660.3      161.60     348.292       0.011       -0.60        0.00
      14546.6      139.36     354.478       0.010       -0.50        0.00
      15460.3      119.24     364.703       0.010       -2.20        0.00
      16401.7      101.39     380.539       0.010       -2.50        0.00
      17370.7       85.80     400.375       0.010       -3.00        0.00
   244.5419     ,  33,  1012.  day,levels,pres0
         46.6     1006.68     297.876      16.500       -1.00        0.00
        160.3      993.76     297.905      16.500       -1.00        0.00
        301.7      977.87     297.911      16.500       -1.40        0.00
        470.7      959.12     297.911      16.500       -1.70        0.00
        667.2      937.67     299.235      15.004       -1.80        0.00
        891.4      913.70     300.136      14.054       -2.10        0.00
       1143.1      887.38     301.200      13.020       -2.60        0.00
       1422.4      858.91     302.536      11.982       -3.60        0.00
       1729.3      828.51     304.035      10.891       -4.90        0.00
       2063.8      796.40     305.737       9.860       -6.70        0.00
       2425.9      762.83     307.545       8.829       -8.70        0.00
       2815.5      728.03     309.369       7.929      -10.60        0.00
       3232.8      692.23     311.280       7.036      -12.20        0.00
       3677.6      655.67     313.213       6.212      -13.20        0.00
       4150.0      618.59     315.411       5.392      -13.10        0.00
       4650.0      581.27     317.924       4.593      -12.00        0.00
       5177.6      543.94     320.610       3.763       -9.70        0.00
       5732.8      506.84     323.480       2.899       -6.60        0.00
       6315.5      470.17     326.258       2.175       -3.20        0.00
       6925.9      434.13     329.099       1.497       -0.30        0.00
       7563.8      398.88     331.582       1.120        1.30        0.00
       8229.3      364.59     334.065       0.787        1.30        0.00
       8922.4      331.38     336.200       0.544        0.40        0.00
       9643.1      299.38     338.102       0.347       -1.00        0.00
      10391.4      268.72     339.802       0.190       -2.90        0.00
      11167.2      239.49     341.230       0.114       -4.30        0.00
      11970.7      211.81     342.889       0.060       -4.50        0.00
      12801.7      185.81     345.010       0.027       -2.80        0.00
      13660.3      161.60     348.292       0.011       -0.60        0.00
      14546.6      139.36     354.478       0.010       -0.50        0.00
      15460.3      119.24     364.703       0.010       -2.20        0.00
      16401.7      101.39     380.539       0.010       -2.50        0.00
      17370.7       85.80     400.375       0.010       -3.00        0.00
   244.5835     ,  33,  1012.  day,levels,pres0
         46.6     1006.68     297.876      16.500       -1.00        0.00
        160.3      993.76     297.905      16.500       -1.00        0.00
        301.7      977.87     297.911      16.500       -1.40        0.00
        470.7      959.12     297.911      16.500       -1.70        0.00
        667.2      937.67     299.235      15.004       -1.80        0.00
        891.4      913.70     300.136      14.054       -2.10        0.00
       1143.1      887.38     301.200      13.020       -2.60        0.00
       1422.4      858.91     302.536      11.982       -3.60        0.00
       1729.3      828.51     304.035      10.891       -4.90        0.00
       2063.8      796.40     305.737       9.860       -6.70        0.00
       2425.9      762.83     307.545       8.829       -8.70        0.00
       2815.5      728.03     309.369       7.929      -10.60        0.00
       3232.8      692.23     311.280       7.036      -12.20        0.00
       3677.6      655.67     313.213       6.212      -13.20        0.00
       4150.0      618.59     315.411       5.392      -13.10        0.00
       4650.0      581.27     317.924       4.593      -12.00        0.00
       5177.6      543.94     320.610       3.763       -9.70        0.00
       5732.8      506.84     323.480       2.899       -6.60        0.00
       6315.5      470.17     326.258       2.175       -3.20        0.00
       6925.9      434.13     329.099       1.497       -0.30        0.00
       7563.8      398.88     331.582       1.120        1.30        0.00
       8229.3      364.59     334.065       0.787        1.30        0.00
       8922.4      331.38     336.200       0.544        0.40        0.00
       9643.1      299.38     338.102       0.347       -1.00        0.00
      10391.4      268.72     339.802       0.190       -2.90        0.00
      11167.2      239.49     341.230       0.114       -4.30        0.00
      11970.7      211.81     342.889       0.060       -4.50        0.00
      12801.7      185.81     345.010       0.027       -2.80        0.00
      13660.3      161.60     348.292       0.011       -0.60        0.00
      14546.6      139.36     354.478       0.010       -0.50        0.00
      15460.3      119.24     364.703       0.010       -2.20        0.00
      16401.7      101.39     380.539       0.010       -2.50        0.00
      17370.7       85.80     400.375       0.010       -3.00        0.00
   244.6252     ,  33,  1012.  day,levels,pres0
         46.6     1006.68     297.876      16.500       -1.00        0.00
        160.3      993.76     297.905      16.500       -1.00        0.00
        301.7      977.87     297.911      16.500       -1.40        0.00
        470.7      959.12     297.911      16.500       -1.70        0.00
        667.2      937.67     299.235      15.004       -1.80        0.00
        891.4      913.70     300.136      14.054       -2.10        0.00
       1143.1      887.38     301.200      13.020       -2.60        0.00
       1422.4      858.91     302.536      11.982       -3.60        0.00
       1729.3      828.51     304.035      10.891       -4.90        0.00
       2063.8      796.40     305.737       9.860       -6.70        0.00
       2425.9      762.83     307.545       8.829       -8.70        0.00
       2815.5      728.03     309.369       7.929      -10.60        0.00
       3232.8      692.23     311.280       7.036      -12.20        0.00
       3677.6      655.67     313.213       6.212      -13.20        0.00
       4150.0      618.59     315.411       5.392      -13.10        0.00
       4650.0      581.27     317.924       4.593      -12.00        0.00
       5177.6      543.94     320.610       3.763       -9.70        0.00
       5732.8      506.84     323.480       2.899       -6.60        0.00
       6315.5      470.17     326.258       2.175       -3.20        0.00
       6925.9      434.13     329.099       1.497       -0.30        0.00
       7563.8      398.88     331.582       1.120        1.30        0.00
       8229.3      364.59     334.065       0.787        1.30        0.00
       8922.4      331.38     336.200       0.544        0.40        0.00
       9643.1      299.38     338.102       0.347       -1.00        0.00
      10391.4      268.72     339.802       0.190       -2.90        0.00
      11167.2      239.49     341.230       0.114       -4.30        0.00
      11970.7      211.81     342.889       0.060       -4.50        0.00
      12801.7      185.81     345.010       0.027       -2.80        0.00
      13660.3      161.60     348.292       0.011       -0.60        0.00
      14546.6      139.36     354.478       0.010       -0.50        0.00
      15460.3      119.24     364.703       0.010       -2.20        0.00
      16401.7      101.39     380.539       0.010       -2.50        0.00
      17370.7       85.80     400.375       0.010       -3.00        0.00
   244.6669     ,  33,  1012.  day,levels,pres0
         46.6     1006.68     297.876      16.500       -1.00        0.00
        160.3      993.76     297.905      16.500       -1.00        0.00
        301.7      977.87     297.911      16.500       -1.40        0.00
        470.7      959.12     297.911      16.500       -1.70        0.00
        667.2      937.67     299.235      15.004       -1.80        0.00
        891.4      913.70     300.136      14.054       -2.10        0.00
       1143.1      887.38     301.200      13.020       -2.60        0.00
       1422.4      858.91     302.536      11.982       -3.60        0.00
       1729.3      828.51     304.035      10.891       -4.90        0.00
       2063.8      796.40     305.737       9.860       -6.70        0.00
       2425.9      762.83     307.545       8.829       -8.70        0.00
       2815.5      728.03     309.369       7.929      -10.60        0.00
       3232.8      692.23     311.280       7.036      -12.20        0.00
       3677.6      655.67     313.213       6.212      -13.20        0.00
       4150.0      618.59     315.411       5.392      -13.10        0.00
       4650.0      581.27     317.924       4.593      -12.00        0.00
       5177.6      543.94     320.610       3.763       -9.70        0.00
       5732.8      506.84     323.480       2.899       -6.60        0.00
       6315.5      470.17     326.258       2.175       -3.20        0.00
       6925.9      434.13     329.099       1.497       -0.30        0.00
       7563.8      398.88     331.582       1.120        1.30        0.00
       8229.3      364.59     334.065       0.787        1.30        0.00
       8922.4      331.38     336.200       0.544        0.40        0.00
       9643.1      299.38     338.102       0.347       -1.00        0.00
      10391.4      268.72     339.802       0.190       -2.90        0.00
      11167.2      239.49     341.230       0.114       -4.30        0.00
      11970.7      211.81     342.889       0.060       -4.50        0.00
      12801.7      185.81     345.010       0.027       -2.80        0.00
      13660.3      161.60     348.292       0.011       -0.60        0.00
      14546.6      139.36     354.478       0.010       -0.50        0.00
      15460.3      119.24     364.703       0.010       -2.20        0.00
      16401.7      101.39     380.539       0.010       -2.50        0.00
      17370.7       85.80     400.375       0.010       -3.00        0.00
   244.7085     ,  33,  1012.  day,levels,pres0
         46.6     1006.68     297.876      16.500       -1.00        0.00
        160.3      993.76     297.905      16.500       -1.00        0.00
        301.7      977.87     297.911      16.500       -1.40        0.00
        470.7      959.12     297.911      16.500       -1.70        0.00
        667.2      937.67     299.235      15.004       -1.80        0.00
        891.4      913.70     300.136      14.054       -2.10        0.00
       1143.1      887.38     301.200      13.020       -2.60        0.00
       1422.4      858.91     302.536      11.982       -3.60        0.00
       1729.3      828.51     304.035      10.891       -4.90        0.00
       2063.8      796.40     305.737       9.860       -6.70        0.00
       2425.9      762.83     307.545       8.829       -8.70        0.00
       2815.5      728.03     309.369       7.929      -10.60        0.00
       3232.8      692.23     311.280       7.036      -12.20        0.00
       3677.6      655.67     313.213       6.212      -13.20        0.00
       4150.0      618.59     315.411       5.392      -13.10        0.00
       4650.0      581.27     317.924       4.593      -12.00        0.00
       5177.6      543.94     320.610       3.763       -9.70        0.00
       5732.8      506.84     323.480       2.899       -6.60        0.00
       6315.5      470.17     326.258       2.175       -3.20        0.00
       6925.9      434.13     329.099       1.497       -0.30        0.00
       7563.8      398.88     331.582       1.120        1.30        0.00
       8229.3      364.59     334.065       0.787        1.30        0.00
       8922.4      331.38     336.200       0.544        0.40        0.00
       9643.1      299.38     338.102       0.347       -1.00        0.00
      10391.4      268.72     339.802       0.190       -2.90        0.00
      11167.2      239.49     341.230       0.114       -4.30        0.00
      11970.7      211.81     342.889       0.060       -4.50        0.00
      12801.7      185.81     345.010       0.027       -2.80        0.00
      13660.3      161.60     348.292       0.011       -0.60        0.00
      14546.6      139.36     354.478       0.010       -0.50        0.00
      15460.3      119.24     364.703       0.010       -2.20        0.00
      16401.7      101.39     380.539       0.010       -2.50        0.00
      17370.7       85.80     400.375       0.010       -3.00        0.00
   244.7502     ,  33,  1012.  day,levels,pres0
         46.6     1006.68     297.876      16.500       -1.00        0.00
        160.3      993.76     297.905      16.500       -1.00        0.00
        301.7      977.87     297.911      16.500       -1.40        0.00
        470.7      959.12     297.911      16.500       -1.70        0.00
        667.2      937.67     299.235      15.004       -1.80        0.00
        891.4      913.70     300.136      14.054       -2.10        0.00
       1143.1      887.38     301.200      13.020       -2.60        0.00
       1422.4      858.91     302.536      11.982       -3.60        0.00
       1729.3      828.51     304.035      10.891       -4.90        0.00
       2063.8      796.40     305.737       9.860       -6.70        0.00
       2425.9      762.83     307.545       8.829       -8.70        0.00
       2815.5      728.03     309.369       7.929      -10.60        0.00
       3232.8      692.23     311.280       7.036      -12.20        0.00
       3677.6      655.67     313.213       6.212      -13.20        0.00
       4150.0      618.59     315.411       5.392      -13.10        0.00
       4650.0      581.27     317.924       4.593      -12.00        0.00
       5177.6      543.94     320.610       3.763       -9.70        0.00
       5732.8      506.84     323.480       2.899       -6.60        0.00
       6315.5      470.17     326.258       2.175       -3.20        0.00
       6925.9      434.13     329.099       1.497       -0.30        0.00
       7563.8      398.88     331.582       1.120        1.30        0.00
       8229.3      364.59     334.065       0.787        1.30        0.00
       8922.4      331.38     336.200       0.544        0.40        0.00
       9643.1      299.38     338.102       0.347       -1.00        0.00
      10391.4      268.72     339.802       0.190       -2.90        0.00
      11167.2      239.49     341.230       0.114       -4.30        0.00
      11970.7      211.81     342.889       0.060       -4.50        0.00
      12801.7      185.81     345.010       0.027       -2.80        0.00
      13660.3      161.60     348.292       0.011       -0.60        0.00
      14546.6      139.36     354.478       0.010       -0.50        0.00
      15460.3      119.24     364.703       0.010       -2.20        0.00
      16401.7      101.39     380.539       0.010       -2.50        0.00
      17370.7       85.80     400.375       0.010       -3.00        0.00
   244.7919     ,  33,  1012.  day,levels,pres0
         46.6     1006.68     297.876      16.500       -1.00        0.00
        160.3      993.76     297.905      16.500       -1.00        0.00
        301.7      977.87     297.911      16.500       -1.40        0.00
        470.7      959.12     297.911      16.500       -1.70        0.00
        667.2      937.67     299.235      15.004       -1.80        0.00
        891.4      913.70     300.136      14.054       -2.10        0.00
       1143.1      887.38     301.200      13.020       -2.60        0.00
       1422.4      858.91     302.536      11.982       -3.60        0.00
       1729.3      828.51     304.035      10.891       -4.90        0.00
       2063.8      796.40     305.737       9.860       -6.70        0.00
       2425.9      762.83     307.545       8.829       -8.70        0.00
       2815.5      728.03     309.369       7.929      -10.60        0.00
       3232.8      692.23     311.280       7.036      -12.20        0.00
       3677.6      655.67     313.213       6.212      -13.20        0.00
       4150.0      618.59     315.411       5.392      -13.10        0.00
       4650.0      581.27     317.924       4.593      -12.00        0.00
       5177.6      543.94     320.610       3.763       -9.70        0.00
       5732.8      506.84     323.480       2.899       -6.60        0.00
       6315.5      470.17     326.258       2.175       -3.20        0.00
       6925.9      434.13     329.099       1.497       -0.30        0.00
       7563.8      398.88     331.582       1.120        1.30        0.00
       8229.3      364.59     334.065       0.787        1.30        0.00
       8922.4      331.38     336.200       0.544        0.40        0.00
       9643.1      299.38     338.102       0.347       -1.00        0.00
      10391.4      268.72     339.802       0.190       -2.90        0.00
      11167.2      239.49     341.230       0.114       -4.30        0.00
      11970.7      211.81     342.889       0.060       -4.50        0.00
      12801.7      185.81     345.010       0.027       -2.80        0.00
      13660.3      161.60     348.292       0.011       -0.60        0.00
      14546.6      139.36     354.478       0.010       -0.50        0.00
      15460.3      119.24     364.703       0.010       -2.20        0.00
      16401.7      101.39     380.539       0.010       -2.50        0.00
      17370.7       85.80     400.375       0.010       -3.00        0.00
   244.8336     ,  33,  1012.  day,levels,pres0
         46.6     1006.68     297.876      16.500       -1.00        0.00
        160.3      993.76     297.905      16.500       -1.00        0.00
        301.7      977.87     297.911      16.500       -1.40        0.00
        470.7      959.12     297.911      16.500       -1.70        0.00
        667.2      937.67     299.235      15.004       -1.80        0.00
        891.4      913.70     300.136      14.054       -2.10        0.00
       1143.1      887.38     301.200      13.020       -2.60        0.00
       1422.4      858.91     302.536      11.982       -3.60        0.00
       1729.3      828.51     304.035      10.891       -4.90        0.00
       2063.8      796.40     305.737       9.860       -6.70        0.00
       2425.9      762.83     307.545       8.829       -8.70        0.00
       2815.5      728.03     309.369       7.929      -10.60        0.00
       3232.8      692.23     311.280       7.036      -12.20        0.00
       3677.6      655.67     313.213       6.212      -13.20        0.00
       4150.0      618.59     315.411       5.392      -13.10        0.00
       4650.0      581.27     317.924       4.593      -12.00        0.00
       5177.6      543.94     320.610       3.763       -9.70        0.00
       5732.8      506.84     323.480       2.899       -6.60        0.00
       6315.5      470.17     326.258       2.175       -3.20        0.00
       6925.9      434.13     329.099       1.497       -0.30        0.00
       7563.8      398.88     331.582       1.120        1.30        0.00
       8229.3      364.59     334.065       0.787        1.30        0.00
       8922.4      331.38     336.200       0.544        0.40        0.00
       9643.1      299.38     338.102       0.347       -1.00        0.00
      10391.4      268.72     339.802       0.190       -2.90        0.00
      11167.2      239.49     341.230       0.114       -4.30        0.00
      11970.7      211.81     342.889       0.060       -4.50        0.00
      12801.7      185.81     345.010       0.027       -2.80        0.00
      13660.3      161.60     348.292       0.011       -0.60        0.00
      14546.6      139.36     354.478       0.010       -0.50        0.00
      15460.3      119.24     364.703       0.010       -2.20        0.00
      16401.7      101.39     380.539       0.010       -2.50        0.00
      17370.7       85.80     400.375       0.010       -3.00        0.00
   244.8752     ,  33,  1012.  day,levels,pres0
         46.6     1006.68     297.876      16.500       -1.00        0.00
        160.3      993.76     297.905      16.500       -1.00        0.00
        301.7      977.87     297.911      16.500       -1.40        0.00
        470.7      959.12     297.911      16.500       -1.70        0.00
        667.2      937.67     299.235      15.004       -1.80        0.00
        891.4      913.70     300.136      14.054       -2.10        0.00
       1143.1      887.38     301.200      13.020       -2.60        0.00
       1422.4      858.91     302.536      11.982       -3.60        0.00
       1729.3      828.51     304.035      10.891       -4.90        0.00
       2063.8      796.40     305.737       9.860       -6.70        0.00
       2425.9      762.83     307.545       8.829       -8.70        0.00
       2815.5      728.03     309.369       7.929      -10.60        0.00
       3232.8      692.23     311.280       7.036      -12.20        0.00
       3677.6      655.67     313.213       6.212      -13.20        0.00
       4150.0      618.59     315.411       5.392      -13.10        0.00
       4650.0      581.27     317.924       4.593      -12.00        0.00
       5177.6      543.94     320.610       3.763       -9.70        0.00
       5732.8      506.84     323.480       2.899       -6.60        0.00
       6315.5      470.17     326.258       2.175       -3.20        0.00
       6925.9      434.13     329.099       1.497       -0.30        0.00
       7563.8      398.88     331.582       1.120        1.30        0.00
       8229.3      364.59     334.065       0.787        1.30        0.00
       8922.4      331.38     336.200       0.544        0.40        0.00
       9643.1      299.38     338.102       0.347       -1.00        0.00
      10391.4      268.72     339.802       0.190       -2.90        0.00
      11167.2      239.49     341.230       0.114       -4.30        0.00
      11970.7      211.81     342.889       0.060       -4.50        0.00
      12801.7      185.81     345.010       0.027       -2.80        0.00
      13660.3      161.60     348.292       0.011       -0.60        0.00
      14546.6      139.36     354.478       0.010       -0.50        0.00
      15460.3      119.24     364.703       0.010       -2.20        0.00
      16401.7      101.39     380.539       0.010       -2.50        0.00
      17370.7       85.80     400.375       0.010       -3.00        0.00
   244.9169     ,  33,  1012.  day,levels,pres0
         46.6     1006.68     297.876      16.500       -1.00        0.00
        160.3      993.76     297.905      16.500       -1.00        0.00
        301.7      977.87     297.911      16.500       -1.40        0.00
        470.7      959.12     297.911      16.500       -1.70        0.00
        667.2      937.67     299.235      15.004       -1.80        0.00
        891.4      913.70     300.136      14.054       -2.10        0.00
       1143.1      887.38     301.200      13.020       -2.60        0.00
       1422.4      858.91     302.536      11.982       -3.60        0.00
       1729.3      828.51     304.035      10.891       -4.90        0.00
       2063.8      796.40     305.737       9.860       -6.70        0.00
       2425.9      762.83     307.545       8.829       -8.70        0.00
       2815.5      728.03     309.369       7.929      -10.60        0.00
       3232.8      692.23     311.280       7.036      -12.20        0.00
       3677.6      655.67     313.213       6.212      -13.20        0.00
       4150.0      618.59     315.411       5.392      -13.10        0.00
       4650.0      581.27     317.924       4.593      -12.00        0.00
       5177.6      543.94     320.610       3.763       -9.70        0.00
       5732.8      506.84     323.480       2.899       -6.60        0.00
       6315.5      470.17     326.258       2.175       -3.20        0.00
       6925.9      434.13     329.099       1.497       -0.30        0.00
       7563.8      398.88     331.582       1.120        1.30        0.00
       8229.3      364.59     334.065       0.787        1.30        0.00
       8922.4      331.38     336.200       0.544        0.40        0.00
       9643.1      299.38     338.102       0.347       -1.00        0.00
      10391.4      268.72     339.802       0.190       -2.90        0.00
      11167.2      239.49     341.230       0.114       -4.30        0.00
      11970.7      211.81     342.889       0.060       -4.50        0.00
      12801.7      185.81     345.010       0.027       -2.80        0.00
      13660.3      161.60     348.292       0.011       -0.60        0.00
      14546.6      139.36     354.478       0.010       -0.50        0.00
      15460.3      119.24     364.703       0.010       -2.20        0.00
      16401.7      101.39     380.539       0.010       -2.50        0.00
      17370.7       85.80     400.375       0.010       -3.00        0.00
   244.9586     ,  33,  1012.  day,levels,pres0
         46.6     1006.68     297.876      16.500       -1.00        0.00
        160.3      993.76     297.905      16.500       -1.00        0.00
        301.7      977.87     297.911      16.500       -1.40        0.00
        470.7      959.12     297.911      16.500       -1.70        0.00
        667.2      937.67     299.235      15.004       -1.80        0.00
        891.4      913.70     300.136      14.054       -2.10        0.00
       1143.1      887.38     301.200      13.020       -2.60        0.00
       1422.4      858.91     302.536      11.982       -3.60        0.00
       1729.3      828.51     304.035      10.891       -4.90        0.00
       2063.8      796.40     305.737       9.860       -6.70        0.00
       2425.9      762.83     307.545       8.829       -8.70        0.00
       2815.5      728.03     309.369       7.929      -10.60        0.00
       3232.8      692.23     311.280       7.036      -12.20        0.00
       3677.6      655.67     313.213       6.212      -13.20        0.00
       4150.0      618.59     315.411       5.392      -13.10        0.00
       4650.0      581.27     317.924       4.593      -12.00        0.00
       5177.6      543.94     320.610       3.763       -9.70        0.00
       5732.8      506.84     323.480       2.899       -6.60        0.00
       6315.5      470.17     326.258       2.175       -3.20        0.00
       6925.9      434.13     329.099       1.497       -0.30        0.00
       7563.8      398.88     331.582       1.120        1.30        0.00
       8229.3      364.59     334.065       0.787        1.30        0.00
       8922.4      331.38     336.200       0.544        0.40        0.00
       9643.1      299.38     338.102       0.347       -1.00        0.00
      10391.4      268.72     339.802       0.190       -2.90        0.00
      11167.2      239.49     341.230       0.114       -4.30        0.00
      11970.7      211.81     342.889       0.060       -4.50        0.00
      12801.7      185.81     345.010       0.027       -2.80        0.00
      13660.3      161.60     348.292       0.011       -0.60        0.00
      14546.6      139.36     354.478       0.010       -0.50        0.00
      15460.3      119.24     364.703       0.010       -2.20        0.00
      16401.7      101.39     380.539       0.010       -2.50        0.00
      17370.7       85.80     400.375       0.010       -3.00        0.00
